TimeStamp,RAW_TP9,RAW_AF7,RAW_AF8,RAW_TP10,AUX1,Marker
2024-02-29 11:58:32.163402,913.4432373046875,337.6556701660156,352.1611633300781,1075.4212646484375,23.77289390563965
2024-02-29 11:58:32.163578,0.0,0.0,339.6703186035156,145.86080932617188,162.7838897705078
2024-02-29 11:58:32.163678,363.040283203125,22.16117286682129,389.23077392578125,1012.1611938476562,265.1282043457031
2024-02-29 11:58:32.168411,1637.5091552734375,441.6117248535156,393.26007080078125,0.0,66.0805892944336
2024-02-29 11:58:32.168538,1484.3956298828125,454.9084167480469,361.8315124511719,490.76922607421875,0.0
2024-02-29 11:58:32.168629,110.4029312133789,37.875457763671875,367.8754577636719,0.0,475.8608093261719
2024-02-29 11:58:32.169570,6.849816799163818,0.0,436.77655029296875,1587.142822265625,1282.5274658203125
2024-02-29 11:58:32.169640,1407.032958984375,335.23809814453125,427.1062316894531,246.996337890625,822.3809814453125
2024-02-29 11:58:32.169702,5.238095283508301,509.70697021484375,363.4432373046875,18.937728881835938,0.0
2024-02-29 11:58:32.169759,241.75823974609375,107.5824203491211,355.78753662109375,1460.2197265625,154.3223419189453
2024-02-29 11:58:32.169812,0.0,0.0,369.8901062011719,1639.9267578125,588.2783813476562
2024-02-29 11:58:32.169862,1331.6849365234375,220.40292358398438,412.6007385253906,244.981689453125,206.7032928466797
2024-02-29 11:58:32.195948,78.97435760498047,524.6153564453125,395.6776428222656,0.0,0.0
2024-02-29 11:58:32.196048,452.4908447265625,219.59707641601562,370.69598388671875,1300.6593017578125,182.12454223632812
2024-02-29 11:58:32.196136,0.0,0.0,407.3626403808594,64.87179565429688,999.6703491210938
2024-02-29 11:58:32.196217,932.3809814453125,97.1062240600586,386.4102478027344,405.3479919433594,410.5860900878906
2024-02-29 11:58:32.197476,144.24908447265625,481.5018310546875,374.72528076171875,0.0,0.0
2024-02-29 11:58:32.197553,1028.6812744140625,351.75823974609375,403.3333435058594,1013.7728881835938,212.34432983398438
2024-02-29 11:58:32.197629,0.0,0.0,433.1501770019531,130.14651489257812,1247.069580078125
2024-02-29 11:58:32.197703,263.1135559082031,8.058608055114746,418.6446838378906,975.091552734375,969.4505615234375
2024-02-29 11:58:32.199446,1588.754638671875,413.80950927734375,386.8132019042969,0.0,0.0
2024-02-29 11:58:32.199516,1535.5677490234375,462.5641174316406,392.05126953125,303.4065856933594,143.44322204589844
2024-02-29 11:58:32.199588,147.06959533691406,46.336997985839844,444.4322204589844,1600.03662109375,1298.24169921875
2024-02-29 11:58:32.199662,0.0,0.0,377.1428527832031,1432.820556640625,689.4139404296875
2024-02-29 11:58:32.242038,1388.4981689453125,319.9267272949219,365.8608093261719,61.64834976196289,0.0
2024-02-29 11:58:32.242193,5.238095283508301,505.27471923828125,414.6153869628906,80.18315124511719,58.021976470947266
2024-02-29 11:58:32.243253,249.41392517089844,119.67032623291016,392.4542236328125,1465.4578857421875,307.032958984375
2024-02-29 11:58:32.243351,0.0,0.0,354.981689453125,1639.5238037109375,430.3296813964844
2024-02-29 11:58:32.243436,1274.871826171875,186.95970153808594,363.4432373046875,230.4761962890625,0.0
2024-02-29 11:58:32.247527,96.30036926269531,493.1867980957031,459.3406677246094,0.0,215.56776428222656
2024-02-29 11:58:32.249005,520.1831665039062,221.2087860107422,433.9560546875,1374.3956298828125,1092.3443603515625
2024-02-29 11:58:32.249138,0.0,0.0,338.05859375,32.234432220458984,607.2161254882812
2024-02-29 11:58:32.249231,772.4176025390625,72.93040466308594,369.4871826171875,430.73260498046875,33.846153259277344
2024-02-29 11:58:32.249336,114.02930450439453,457.72894287109375,456.5201416015625,0.0,234.90843200683594
2024-02-29 11:58:32.249422,1153.5897216796875,369.4871826171875,397.28936767578125,617.6923217773438,101.94139099121094
2024-02-29 11:58:32.250186,0.0,0.0,333.22344970703125,1648.791259765625,142.63735961914062
2024-02-29 11:58:32.296945,160.36630249023438,0.0,377.1428527832031,936.00732421875,175.27471923828125
2024-02-29 11:58:32.297074,1530.7325439453125,372.71063232421875,394.0659484863281,0.0,23.77289390563965
2024-02-29 11:58:32.297202,1575.054931640625,454.1025695800781,370.29302978515625,148.27838134765625,3.2234432697296143
2024-02-29 11:58:32.298298,170.03663635253906,53.18681335449219,346.5201416015625,1446.923095703125,105.97069549560547
2024-02-29 11:58:32.298412,213.15017700195312,2.0146520137786865,383.5897521972656,1346.996337890625,516.959716796875
2024-02-29 11:58:32.298520,1484.3956298828125,323.9560546875,424.28570556640625,66.48351287841797,372.71063232421875
2024-02-29 11:58:32.298618,1526.3004150390625,466.19049072265625,405.75091552734375,110.4029312133789,0.0
2024-02-29 11:58:32.298721,254.65200805664062,122.0879135131836,378.3516540527344,1359.89013671875,324.76190185546875
2024-02-29 11:58:32.298829,0.0,0.0,392.05126953125,49.56044006347656,835.2747192382812
2024-02-29 11:58:32.299496,1183.003662109375,141.8314971923828,498.02197265625,456.9230651855469,1502.930419921875
2024-02-29 11:58:32.299593,113.62637329101562,487.94873046875,490.76922607421875,0.0,1103.223388671875
2024-02-29 11:58:32.299689,591.5018310546875,262.71063232421875,366.6666564941406,880.0,81.3919448852539
2024-02-29 11:58:32.346146,0.0,0.0,363.040283203125,1638.3150634765625,373.1135559082031
2024-02-29 11:58:32.346350,597.5457763671875,50.769229888916016,378.3516540527344,514.1392211914062,297.3626403808594
2024-02-29 11:58:32.346517,66.48351287841797,443.6263732910156,374.3223571777344,0.0,0.0
2024-02-29 11:58:32.346659,1266.813232421875,379.96337890625,370.29302978515625,422.6739807128906,1.2087912559509277
2024-02-29 11:58:32.346798,0.0,4.029304027557373,386.8132019042969,1571.025634765625,541.1355590820312
2024-02-29 11:58:32.346937,99.92674255371094,0.0,405.3479919433594,1106.0439453125,662.8204956054688
2024-02-29 11:58:32.347072,1469.084228515625,348.1318664550781,415.018310546875,0.0,69.30403137207031
2024-02-29 11:58:32.350129,1623.4066162109375,450.8791198730469,390.03662109375,106.77655792236328,0.0
2024-02-29 11:58:32.350254,212.34432983398438,65.67765808105469,443.6263732910156,1438.05859375,1021.4285888671875
2024-02-29 11:58:32.350383,0.0,0.0,458.5347900390625,1574.2490234375,1503.3333740234375
2024-02-29 11:58:32.350506,1381.245361328125,263.5164794921875,370.29302978515625,158.35165405273438,185.75091552734375
2024-02-29 11:58:32.350629,12.893773078918457,501.6483459472656,377.5457763671875,0.0,0.0
2024-02-29 11:58:32.396528,297.3626403808594,152.7106170654297,378.3516540527344,1359.084228515625,381.97802734375
2024-02-29 11:58:32.396698,0.0,0.0,346.9230651855469,1647.9853515625,266.3370056152344
2024-02-29 11:58:32.396860,1119.7435302734375,133.36996459960938,363.040283203125,264.3223571777344,39.487178802490234
2024-02-29 11:58:32.397010,132.56410217285156,487.5457763671875,392.8571472167969,0.0,0.0
2024-02-29 11:58:32.397796,711.97802734375,281.24542236328125,378.3516540527344,1070.18310546875,59.230770111083984
2024-02-29 11:58:32.397945,0.0,0.0,379.96337890625,1507.3626708984375,655.970703125
2024-02-29 11:58:32.398096,500.8424987792969,34.24908447265625,394.4688720703125,560.4761962890625,556.8497924804688
2024-02-29 11:58:32.398243,24.578754425048828,428.3150329589844,419.047607421875,0.0,35.86080551147461
2024-02-29 11:58:32.398392,1382.4542236328125,400.1098937988281,474.24908447265625,914.6520385742188,1056.4835205078125
2024-02-29 11:58:32.398538,39.89011001586914,14.908425331115723,385.6044006347656,147.06959533691406,1261.5750732421875
2024-02-29 11:58:32.398685,41.904762268066406,0.0,340.4761962890625,994.4322509765625,242.1611785888672
2024-02-29 11:58:32.398832,1423.9560546875,348.5347900390625,408.1684875488281,0.0,49.96337127685547
2024-02-29 11:58:32.421812,1647.179443359375,483.1135559082031,392.8571472167969,54.39560317993164,67.69230651855469
2024-02-29 11:58:32.422008,233.2967071533203,85.4212417602539,336.8498229980469,1369.5604248046875,56.00732421875
2024-02-29 11:58:32.422244,0.0,0.0,348.5347900390625,1594.798583984375,123.29669952392578
2024-02-29 11:58:32.422960,1363.113525390625,226.44688415527344,412.19781494140625,188.974365234375,39.89011001586914
2024-02-29 11:58:32.423122,30.622711181640625,493.1867980957031,395.6776428222656,0.0,0.0
2024-02-29 11:58:32.424209,350.5494384765625,169.63369750976562,375.5311279296875,1272.857177734375,290.9157409667969
2024-02-29 11:58:32.424367,0.0,0.0,381.97802734375,1640.7325439453125,687.3992919921875
2024-02-29 11:58:32.424532,1006.5201416015625,106.37362670898438,448.8644714355469,338.8644714355469,820.3662719726562
2024-02-29 11:58:32.424690,134.981689453125,473.8461608886719,428.3150329589844,0.0,481.9047546386719
2024-02-29 11:58:32.430163,829.6337280273438,317.1062316894531,348.1318664550781,598.7545776367188,0.0
2024-02-29 11:58:32.430338,0.0,0.0,351.3553161621094,1626.22705078125,249.41392517089844
2024-02-29 11:58:32.430499,352.5641174316406,22.564102172851562,377.1428527832031,867.106201171875,413.4065856933594
2024-02-29 11:58:32.476963,1627.4359130859375,422.6739807128906,388.02197265625,0.0,43.516483306884766
2024-02-29 11:58:32.477159,1456.5933837890625,425.0915832519531,374.72528076171875,213.15017700195312,0.0
2024-02-29 11:58:32.478217,74.13919067382812,26.996337890625,362.23443603515625,1520.2564697265625,604.3956298828125
2024-02-29 11:58:32.478392,16.117216110229492,0.0,400.5128173828125,1293.8095703125,1029.4871826171875
2024-02-29 11:58:32.479895,1398.5714111328125,332.0146484375,406.5567626953125,0.0,199.45054626464844
2024-02-29 11:58:32.480059,1574.6519775390625,458.5347900390625,394.4688720703125,140.62271118164062,0.0
2024-02-29 11:58:32.480241,214.76190185546875,87.43589782714844,382.78387451171875,1426.776611328125,529.4505615234375
2024-02-29 11:58:32.480393,0.0,0.0,445.23809814453125,1630.2564697265625,1480.3663330078125
2024-02-29 11:58:32.480570,1329.2674560546875,211.53846740722656,423.0769348144531,307.4358825683594,778.8644409179688
2024-02-29 11:58:32.480735,63.663002014160156,512.12451171875,359.8168640136719,0.0,0.0
2024-02-29 11:58:32.481022,425.8974304199219,206.7032928466797,392.05126953125,1073.003662109375,368.27838134765625
2024-02-29 11:58:32.481177,0.0,0.0,372.71063232421875,1620.989013671875,821.1721801757812
2024-02-29 11:58:32.524681,902.1611938476562,96.70330047607422,359.4139099121094,350.952392578125,159.56044006347656
2024-02-29 11:58:32.526887,130.54945373535156,476.6666564941406,384.3955993652344,0.0,0.0
2024-02-29 11:58:32.527161,971.062255859375,336.0439453125,395.6776428222656,685.3846435546875,138.2051239013672
2024-02-29 11:58:32.527395,0.0,0.0,360.21978759765625,11.684981346130371,326.77655029296875
2024-02-29 11:58:32.527637,244.981689453125,8.461538314819336,375.9340515136719,774.029296875,280.03662109375
2024-02-29 11:58:32.527854,1573.040283203125,388.4248962402344,406.1538391113281,0.0,0.0
2024-02-29 11:58:32.528085,1516.22705078125,426.30035400390625,441.20880126953125,417.4358825683594,420.25640869140625
2024-02-29 11:58:32.528301,119.67032623291016,38.68132019042969,459.3406677246094,1640.7325439453125,1472.7105712890625
2024-02-29 11:58:32.528514,0.0,0.0,367.0696105957031,1278.4981689453125,618.901123046875
2024-02-29 11:58:32.528736,1383.6629638671875,303.003662109375,370.69598388671875,16.923076629638672,0.0
2024-02-29 11:58:32.528946,5.238095283508301,492.78387451171875,399.30401611328125,0.0,78.97435760498047
2024-02-29 11:58:32.532522,251.42857360839844,118.05860900878906,356.19049072265625,1285.3480224609375,69.30403137207031
2024-02-29 11:58:32.579173,0.0,0.0,344.9084167480469,1627.4359130859375,161.97802734375
2024-02-29 11:58:32.579456,1272.4542236328125,180.10989379882812,390.4395751953125,284.8717956542969,59.63370132446289
2024-02-29 11:58:32.579707,88.24176025390625,494.79852294921875,398.9010925292969,0.0,0.0
2024-02-29 11:58:32.579925,499.6336975097656,228.46153259277344,363.4432373046875,894.1025390625,57.619049072265625
2024-02-29 11:58:32.580182,0.0,0.0,345.71429443359375,1631.8681640625,213.15017700195312
2024-02-29 11:58:32.580413,773.2234497070312,73.33333587646484,398.9010925292969,467.80218505859375,361.8315124511719
2024-02-29 11:58:32.580679,112.0146484375,453.69964599609375,469.010986328125,0.0,523.8095092773438
2024-02-29 11:58:32.580927,1130.6226806640625,361.8315124511719,406.959716796875,668.8644409179688,218.38827514648438
2024-02-29 11:58:32.581138,0.0,0.0,363.040283203125,1.6117216348648071,451.28204345703125
2024-02-29 11:58:32.581303,172.85714721679688,0.0,391.6483459472656,923.5164794921875,732.12451171875
2024-02-29 11:58:32.581471,1526.7032470703125,364.6520080566406,472.23443603515625,0.0,910.6226806640625
2024-02-29 11:58:32.581628,1582.7105712890625,452.0879211425781,405.75091552734375,124.9084243774414,305.018310546875
2024-02-29 11:58:32.627426,180.91575622558594,58.42490768432617,327.5824279785156,1425.970703125,0.4029304087162018
2024-02-29 11:58:32.627788,0.0,0.0,364.6520080566406,1554.1025390625,404.5421142578125
2024-02-29 11:58:32.628034,1383.2601318359375,294.5421142578125,383.5897521972656,161.1721649169922,157.54579162597656
2024-02-29 11:58:32.628236,2.0146520137786865,501.6483459472656,363.8461608886719,0.0,0.0
2024-02-29 11:58:32.628434,260.29302978515625,134.57875061035156,351.3553161621094,1303.8828125,94.28571319580078
2024-02-29 11:58:32.629618,0.0,0.0,413.80950927734375,1635.4945068359375,827.6190185546875
2024-02-29 11:58:32.629801,1205.970703125,149.08424377441406,426.70330810546875,286.0805969238281,535.4945068359375
2024-02-29 11:58:32.629985,112.0146484375,495.20147705078125,383.99267578125,0.0,0.0
2024-02-29 11:58:32.630164,583.8461303710938,263.5164794921875,353.3699645996094,917.4725341796875,44.32234573364258
2024-02-29 11:58:32.630913,0.0,0.0,422.27105712890625,1598.827880859375,1104.4322509765625
2024-02-29 11:58:32.631127,646.7033081054688,54.39560317993164,438.3882751464844,556.0439453125,1011.7582397460938
2024-02-29 11:58:32.631359,80.5860824584961,458.937744140625,375.5311279296875,0.0,0.0
2024-02-29 11:58:32.678798,1260.769287109375,393.26007080078125,375.9340515136719,452.8937683105469,87.83882904052734
2024-02-29 11:58:32.681557,0.0,4.029304027557373,405.75091552734375,1607.6922607421875,1013.7728881835938
2024-02-29 11:58:32.681770,112.4175796508789,0.0,376.3370056152344,1040.769287109375,558.4615478515625
2024-02-29 11:58:32.681956,1483.99267578125,365.054931640625,365.054931640625,0.0,0.0
2024-02-29 11:58:32.682734,1619.7802734375,464.981689453125,392.8571472167969,157.54579162597656,65.67765808105469
2024-02-29 11:58:32.682933,211.94139099121094,65.27472686767578,378.3516540527344,1465.054931640625,610.8424682617188
2024-02-29 11:58:32.683112,0.0,0.0,375.9340515136719,1591.5750732421875,855.4212646484375
2024-02-29 11:58:32.683285,1380.842529296875,266.73992919921875,419.8534851074219,172.85714721679688,152.7106170654297
2024-02-29 11:58:32.683455,12.893773078918457,497.6190490722656,434.3589782714844,0.0,0.0
2024-02-29 11:58:32.683686,294.5421142578125,147.4725341796875,456.9230651855469,1409.853515625,1329.2674560546875
2024-02-29 11:58:32.683944,0.0,0.0,388.4248962402344,1637.912109375,1223.2967529296875
2024-02-29 11:58:32.684155,1130.6226806640625,132.96702575683594,350.952392578125,280.4395751953125,41.098899841308594
2024-02-29 11:58:32.707236,130.14651489257812,479.0842590332031,413.4065856933594,0.0,9.670330047607422
2024-02-29 11:58:32.708097,690.6226806640625,272.78387451171875,400.5128173828125,1044.3956298828125,143.84616088867188
2024-02-29 11:58:32.708292,0.0,0.0,344.1025695800781,53.99267578125,196.63003540039062
2024-02-29 11:58:32.708467,490.3663024902344,35.86080551147461,353.77288818359375,549.5970458984375,31.0256404876709
2024-02-29 11:58:32.708640,31.831501007080078,421.8681335449219,431.94140625,0.0,136.1904754638672
2024-02-29 11:58:32.710615,1368.3516845703125,392.05126953125,419.8534851074219,653.5531005859375,397.28936767578125
2024-02-29 11:58:32.710827,30.622711181640625,15.714285850524902,359.4139099121094,34.24908447265625,498.02197265625
2024-02-29 11:58:32.711006,53.99267578125,0.0,355.3846130371094,1090.7325439453125,242.56410217285156
2024-02-29 11:58:32.711216,1433.6263427734375,334.8351745605469,456.1172180175781,0.0,297.3626403808594
2024-02-29 11:58:32.711393,1645.970703125,469.4139099121094,428.3150329589844,66.88644409179688,343.69964599609375
2024-02-29 11:58:32.711545,232.08790588378906,83.80952453613281,331.20880126953125,1391.3187255859375,44.32234573364258
2024-02-29 11:58:32.756151,1369.5604248046875,232.4908447265625,388.02197265625,213.55311584472656,106.77655792236328
2024-02-29 11:58:32.756480,35.05494689941406,492.3809509277344,372.30767822265625,0.0,0.4029304087162018
2024-02-29 11:58:32.756701,349.3406677246094,169.63369750976562,346.1172180175781,1214.835205078125,0.0
2024-02-29 11:58:32.759572,0.0,0.0,365.4578857421875,73.33333587646484,435.5677795410156
2024-02-29 11:58:32.759804,1046.00732421875,119.67032623291016,393.6629943847656,467.3992614746094,541.5384521484375
2024-02-29 11:58:32.759995,114.02930450439453,472.6373596191406,408.974365234375,0.0,16.923076629638672
2024-02-29 11:58:32.761052,805.8607788085938,297.3626403808594,395.6776428222656,884.029296875,69.30403137207031
2024-02-29 11:58:32.761298,0.0,0.0,377.5457763671875,91.06227111816406,704.7252807617188
2024-02-29 11:58:32.761501,361.8315124511719,17.72893714904785,474.6520080566406,1125.3846435546875,1567.80224609375
2024-02-29 11:58:32.761709,1633.076904296875,407.3626403808594,473.040283203125,0.0,952.12451171875
2024-02-29 11:58:32.761904,1452.967041015625,430.3296813964844,367.0696105957031,151.09890747070312,0.0
2024-02-29 11:58:32.762086,77.36264038085938,32.234432220458984,351.75823974609375,1521.062255859375,357.80218505859375
2024-02-29 11:58:32.806236,12.490842819213867,0.0,361.8315124511719,1256.7398681640625,359.4139099121094
2024-02-29 11:58:32.806455,1401.794921875,335.6410217285156,371.9047546386719,0.0,0.0
2024-02-29 11:58:32.806659,5.641025543212891,491.97802734375,374.72528076171875,46.739925384521484,0.0
2024-02-29 11:58:32.806833,242.96702575683594,97.9120864868164,363.8461608886719,1380.842529296875,356.5934143066406
2024-02-29 11:58:32.807029,0.0,0.0,359.010986328125,1628.6446533203125,432.74725341796875
2024-02-29 11:58:32.807197,1336.1171875,213.15017700195312,395.27471923828125,226.84982299804688,88.24176025390625
2024-02-29 11:58:32.807373,60.03662872314453,497.21612548828125,409.78021240234375,0.0,0.0
2024-02-29 11:58:32.808275,415.4212341308594,192.1977996826172,454.1025695800781,1277.6922607421875,696.6666870117188
2024-02-29 11:58:32.808436,0.0,0.0,463.3699645996094,18.131868362426758,1510.18310546875
2024-02-29 11:58:32.808590,935.6043701171875,101.53845977783203,368.6813049316406,326.3736267089844,338.05859375
2024-02-29 11:58:32.808750,138.60806274414062,478.6813049316406,374.72528076171875,0.0,0.0
2024-02-29 11:58:32.809488,973.8828125,330.0,384.3955993652344,930.7692260742188,209.12088012695312
2024-02-29 11:58:32.855547,0.0,0.0,342.0879211425781,62.0512809753418,147.06959533691406
2024-02-29 11:58:32.855745,267.1428527832031,12.490842819213867,350.952392578125,762.7472534179688,64.46886444091797
2024-02-29 11:58:32.855904,1587.94873046875,404.945068359375,399.30401611328125,0.0,16.117216110229492
2024-02-29 11:58:32.856051,1515.82421875,444.4322204589844,392.4542236328125,180.5128173828125,0.0
2024-02-29 11:58:32.856194,124.9084243774414,42.30769348144531,356.5934143066406,1471.098876953125,202.27105712890625
2024-02-29 11:58:32.861132,0.0,0.0,383.5897521972656,1459.010986328125,493.99267578125
2024-02-29 11:58:32.861274,1386.886474609375,309.047607421875,415.4212341308594,37.47252655029297,174.87179565429688
2024-02-29 11:58:32.861407,5.641025543212891,479.0842590332031,485.5311279296875,110.80586242675781,799.8168334960938
2024-02-29 11:58:32.862154,249.8168487548828,107.9853515625,398.0952453613281,1503.7362060546875,1065.3480224609375
2024-02-29 11:58:32.862286,0.0,0.0,340.8791198730469,1604.871826171875,429.1208801269531
2024-02-29 11:58:32.862451,1281.7215576171875,184.54212951660156,427.9120788574219,286.8864440917969,261.5018310546875
2024-02-29 11:58:32.862601,86.63003540039062,500.4395751953125,412.19781494140625,0.0,149.08424377441406
2024-02-29 11:58:32.913640,492.3809509277344,229.26739501953125,339.26739501953125,974.6886596679688,23.77289390563965
2024-02-29 11:58:32.913881,0.0,0.0,344.5054931640625,1649.5970458984375,164.39559936523438
2024-02-29 11:58:32.914086,798.6080322265625,80.18315124511719,410.5860900878906,474.6520080566406,215.970703125
2024-02-29 11:58:32.914283,117.65567779541016,473.8461608886719,403.3333435058594,0.0,23.369962692260742
2024-02-29 11:58:32.914479,1110.4761962890625,371.5018310546875,359.010986328125,536.3003540039062,24.981685638427734
2024-02-29 11:58:32.914676,0.0,0.0,358.20513916015625,1609.7069091796875,526.2271118164062
2024-02-29 11:58:32.914864,182.5274658203125,0.0,446.0439453125,1193.076904296875,1191.4652099609375
2024-02-29 11:58:32.915051,1534.3590087890625,375.1282043457031,429.1208801269531,0.0,793.3699340820312
2024-02-29 11:58:32.915241,1576.2637939453125,460.1465148925781,350.1465148925781,85.82417297363281,0.0
2024-02-29 11:58:32.915424,175.27471923828125,56.410255432128906,350.5494384765625,1460.6226806640625,171.24542236328125
2024-02-29 11:58:32.915576,0.0,0.0,376.73992919921875,1504.945068359375,670.4761962890625
2024-02-29 11:58:32.915726,1382.4542236328125,301.3919372558594,394.4688720703125,95.0915756225586,221.2087860107422
2024-02-29 11:58:32.957682,2.8205127716064453,506.4835205078125,392.4542236328125,0.0,0.0
2024-02-29 11:58:32.958041,258.27838134765625,132.96702575683594,375.9340515136719,1376.00732421875,362.23443603515625
2024-02-29 11:58:32.958561,0.0,0.0,426.30035400390625,1645.970703125,1239.4139404296875
2024-02-29 11:58:32.958886,1218.864501953125,162.7838897705078,404.1391906738281,253.04029846191406,470.21978759765625
2024-02-29 11:58:32.959130,107.9853515625,500.03662109375,368.6813049316406,0.0,0.0
2024-02-29 11:58:32.959356,566.5201416015625,253.44322204589844,385.20147705078125,1195.4945068359375,308.24176025390625
2024-02-29 11:58:32.959586,0.0,0.0,392.4542236328125,1650.0,1141.90478515625
2024-02-29 11:58:32.965263,665.6410522460938,56.410255432128906,404.945068359375,509.70697021484375,738.1685180664062
2024-02-29 11:58:32.965607,84.21245574951172,452.0879211425781,390.03662109375,0.0,0.0
2024-02-29 11:58:32.965861,1239.81689453125,384.3955993652344,398.0952453613281,557.2527465820312,166.00732421875
2024-02-29 11:58:32.966112,0.0,2.4175825119018555,449.6703186035156,1644.761962890625,1325.238037109375
2024-02-29 11:58:32.966407,124.9084243774414,0.0,386.00732421875,959.7802124023438,657.5823974609375
2024-02-29 11:58:33.006762,1492.857177734375,369.0842590332031,371.5018310546875,0.0,0.0
2024-02-29 11:58:33.007013,1615.7509765625,462.967041015625,387.21612548828125,191.39193725585938,76.15384674072266
2024-02-29 11:58:33.007254,209.92674255371094,63.663002014160156,357.80218505859375,1485.6043701171875,205.09156799316406
2024-02-29 11:58:33.007805,0.0,0.0,370.69598388671875,1590.769287109375,498.02197265625
2024-02-29 11:58:33.008009,1381.245361328125,276.4102478027344,382.3809509277344,167.61904907226562,44.72527313232422
2024-02-29 11:58:33.008214,12.893773078918457,502.8571472167969,441.20880126953125,26.190475463867188,217.58241271972656
2024-02-29 11:58:33.008420,291.3186950683594,145.86080932617188,414.21246337890625,1453.77294921875,1143.91943359375
2024-02-29 11:58:33.008626,0.0,0.0,331.6117248535156,1617.765625,597.1428833007812
2024-02-29 11:58:33.009166,1142.7105712890625,135.38461303710938,364.6520080566406,302.6007385253906,20.952381134033203
2024-02-29 11:58:33.009374,128.93772888183594,483.5164794921875,449.6703186035156,0.0,230.87911987304688
2024-02-29 11:58:33.009587,682.1611938476562,283.26007080078125,392.8571472167969,843.3333129882812,133.36996459960938
2024-02-29 11:58:33.009788,0.0,0.0,330.0,1648.3883056640625,117.25274658203125
2024-02-29 11:58:33.054886,509.70697021484375,37.06959533691406,375.9340515136719,595.1282348632812,116.84981536865234
2024-02-29 11:58:33.055177,39.487178802490234,443.22344970703125,399.70697021484375,0.0,18.131868362426758
2024-02-29 11:58:33.055409,1356.2637939453125,412.19781494140625,377.5457763671875,386.4102478027344,10.879120826721191
4.8351745605469,456.1172180175781,0.0,297.3626403808594
2024-02-29 11:58:32.711393,1645.2024-02-29 11:58:33.055614,23.77289390563965,15.714285850524902,346.9230651855469,1566.1904296875,141.8314971923828
2024-02-29 11:58:33.056117,1439.6702880859375,358.6080627441406,418.24176025390625,0.0,140.62271118164062
2024-02-29 11:58:33.056317,1643.5531005859375,480.29302978515625,416.22711181640625,118.46154022216797,31.831501007080078
2024-02-29 11:58:33.056493,228.86447143554688,77.36264038085938,390.03662109375,1450.952392578125,469.8168640136719
2024-02-29 11:58:33.056875,0.0,0.0,383.99267578125,1625.018310546875,872.3442993164062
2024-02-29 11:58:33.060894,1374.798583984375,238.93772888183594,481.5018310546875,263.5164794921875,1400.18310546875
2024-02-29 11:58:33.061408,32.63736343383789,507.28936767578125,487.5457763671875,0.0,1145.5311279296875
2024-02-29 11:58:33.061613,344.9084167480469,184.94505310058594,365.8608093261719,1200.3297119140625,148.27838134765625
2024-02-29 11:58:33.083294,0.0,0.0,354.1758117675781,1636.7032470703125,327.1794738769531
2024-02-29 11:58:33.083675,1058.09521484375,122.8937759399414,378.3516540527344,318.3150329589844,252.23443603515625
2024-02-29 11:58:33.083996,147.4725341796875,494.3955993652344,374.3223571777344,0.0,0.0
2024-02-29 11:58:33.084213,793.7728881835938,310.25640869140625,364.24908447265625,823.99267578125,20.952381134033203
2024-02-29 11:58:33.084442,0.0,0.0,396.0805969238281,36.66666793823242,570.5494384765625
2024-02-29 11:58:33.084647,540.3296508789062,48.35165023803711,416.22711181640625,703.5164794921875,581.4285888671875
2024-02-29 11:58:33.084857,51.17216110229492,428.71795654296875,406.5567626953125,0.0,23.77289390563965
2024-02-29 11:58:33.085058,1409.4505615234375,421.8681335449219,376.3370056152344,271.5751037597656,0.0
2024-02-29 11:58:33.085256,80.989013671875,31.0256404876709,434.3589782714844,1527.106201171875,1005.7142944335938
2024-02-29 11:58:33.085546,16.117216110229492,0.0,429.9267272949219,1303.076904296875,1276.886474609375
2024-02-29 11:58:33.085846,1407.4359130859375,335.6410217285156,359.4139099121094,0.0,56.00732421875
2024-02-29 11:58:33.086048,5.238095283508301,485.5311279296875,381.1721496582031,71.31867980957031,0.0
2024-02-29 11:58:33.132411,242.56410217285156,91.86813354492188,375.5311279296875,1425.5677490234375,544.3589477539062
2024-02-29 11:58:33.132655,0.0,0.0,346.5201416015625,1624.6153564453125,407.3626403808594
2024-02-29 11:58:33.132843,1345.78759765625,221.2087860107422,361.8315124511719,209.92674255371094,14.102563858032227
2024-02-29 11:58:33.133029,51.17216110229492,505.6776428222656,394.8717956542969,0.0,0.0
2024-02-29 11:58:33.133203,403.73626708984375,195.42124938964844,391.6483459472656,1319.194091796875,322.3443298339844
2024-02-29 11:58:33.133492,0.0,0.0,378.75457763671875,1626.6300048828125,841.7216186523438
2024-02-29 11:58:33.133754,965.8241577148438,103.95604705810547,395.6776428222656,326.77655029296875,492.3809509277344
2024-02-29 11:58:33.133981,130.54945373535156,473.4432373046875,410.5860900878906,0.0,0.0
2024-02-29 11:58:33.134157,943.6630249023438,319.9267272949219,471.025634765625,1189.4505615234375,1095.5677490234375
2024-02-29 11:58:33.134324,0.0,0.0,427.5091552734375,124.5054931640625,1443.2967529296875
2024-02-29 11:58:33.134506,281.24542236328125,14.505494117736816,352.1611633300781,711.97802734375,241.75823974609375
2024-02-29 11:58:33.138008,1593.5897216796875,404.945068359375,391.6483459472656,0.0,0.0
2024-02-29 11:58:33.184133,1508.5714111328125,438.3882751464844,389.6336975097656,267.94873046875,92.67399597167969
2024-02-29 11:58:33.184544,119.67032623291016,39.89011001586914,348.1318664550781,1517.4359130859375,76.55677795410156
2024-02-29 11:58:33.184869,0.0,0.0,357.80218505859375,1348.205078125,82.6007308959961
2024-02-29 11:58:33.185128,1387.6922607421875,317.1062316894531,405.75091552734375,12.893773078918457,85.01831817626953
2024-02-29 11:58:33.185423,6.043956279754639,491.97802734375,394.8717956542969,16.923076629638672,44.32234573364258
2024-02-29 11:58:33.185627,248.60806274414062,111.20879364013672,371.5018310546875,1367.5457763671875,272.3809509277344
2024-02-29 11:58:33.185824,0.0,0.0,377.1428527832031,1635.091552734375,662.8204956054688
2024-02-29 11:58:33.186009,1290.5860595703125,183.3333282470703,457.72894287109375,274.79852294921875,667.2527465820312
2024-02-29 11:58:33.186188,82.6007308959961,498.02197265625,431.94140625,0.0,375.1282043457031
2024-02-29 11:58:33.186370,480.29302978515625,226.84982299804688,340.8791198730469,1038.754638671875,0.0
2024-02-29 11:58:33.186545,0.0,0.0,346.1172180175781,21.355310440063477,218.7912139892578
2024-02-29 11:58:33.186707,816.7399291992188,77.76556396484375,369.8901062011719,499.23077392578125,282.05126953125
2024-02-29 11:58:33.227709,120.87911987304688,465.78753662109375,392.05126953125,0.0,25.384614944458008
2024-02-29 11:58:33.228536,1088.3150634765625,360.6227111816406,363.8461608886719,589.89013671875,0.0
2024-02-29 11:58:33.228885,0.0,0.0,362.6373596191406,1640.3297119140625,439.5970764160156
2024-02-29 11:58:33.229345,203.4798583984375,0.4029304087162018,377.94873046875,929.1575317382812,732.12451171875
2024-02-29 11:58:33.229806,1550.4761962890625,381.5751037597656,381.97802734375,0.0,85.4212417602539
2024-02-29 11:58:33.230088,1562.5640869140625,443.6263732910156,400.9157409667969,212.74725341796875,0.0
2024-02-29 11:58:33.230345,164.7985382080078,50.769229888916016,388.8278503417969,1476.7398681640625,587.4725341796875
2024-02-29 11:58:33.230840,0.0,0.0,471.025634765625,1629.4505615234375,1578.6812744140625
2024-02-29 11:58:33.231535,1382.05126953125,294.5421142578125,484.3223571777344,247.8022003173828,1169.3040771484375
2024-02-29 11:58:33.231813,3.2234432697296143,506.8864440917969,378.75457763671875,0.0,0.0
2024-02-29 11:58:33.232330,257.4725341796875,132.96702575683594,363.4432373046875,1328.05859375,223.62637329101562
2024-02-29 11:58:33.233402,0.0,0.0,360.21978759765625,1642.3443603515625,443.6263732910156
2024-02-29 11:58:33.275827,1225.7142333984375,163.1868133544922,361.025634765625,272.78387451171875,54.79853439331055
2024-02-29 11:58:33.279900,106.37362670898438,509.70697021484375,378.75457763671875,0.0,0.0
2024-02-29 11:58:33.281590,556.0439453125,256.26373291015625,389.6336975097656,1087.5091552734375,205.4945068359375
2024-02-29 11:58:33.281703,0.0,0.0,359.8168640136719,33.44322204589844,396.8864440917969
2024-02-29 11:58:33.281804,679.7435913085938,64.06593322753906,369.4871826171875,451.28204345703125,132.1611785888672
2024-02-29 11:58:33.281905,90.25640869140625,456.5201416015625,410.989013671875,0.0,0.0
2024-02-29 11:58:33.282003,1220.0732421875,376.73992919921875,444.8351745605469,824.3956298828125,501.6483459472656
2024-02-29 11:58:33.285331,0.0,0.0,412.19781494140625,89.04762268066406,1330.0732421875
2024-02-29 11:58:33.285483,135.7875518798828,0.0,350.952392578125,921.5018310546875,425.8974304199219
2024-02-29 11:58:33.285597,1498.901123046875,373.5164794921875,392.05126953125,0.0,0.0
2024-02-29 11:58:33.285740,1614.945068359375,463.3699645996094,456.9230651855469,297.76556396484375,388.02197265625
2024-02-29 11:58:33.285855,211.13552856445312,61.64834976196289,370.69598388671875,1558.937744140625,286.4835205078125
2024-02-29 11:58:33.329040,0.0,0.0,337.6556701660156,1487.216064453125,92.27106475830078
2024-02-29 11:58:33.329259,1381.6483154296875,282.05126953125,395.27471923828125,141.025634765625,47.5457878112793
2024-02-29 11:58:33.329423,10.879120826721191,510.1098937988281,387.6190490722656,0.0,3.626373529434204
2024-02-29 11:58:33.329578,287.28936767578125,152.7106170654297,351.3553161621094,1287.765625,78.97435760498047
2024-02-29 11:58:33.331351,0.0,0.0,349.3406677246094,0.4029304087162018,205.4945068359375
2024-02-29 11:58:33.331485,1149.96337890625,132.1611785888672,417.4358825683594,291.3186950683594,238.13186645507812
2024-02-29 11:58:33.331616,125.31135559082031,472.6373596191406,483.1135559082031,0.0,610.8424682617188
2024-02-29 11:58:33.331745,664.029296875,267.94873046875,413.003662109375,1018.6080322265625,513.3333129882812
                                                                                                   2024-02-29 11:58:33.331872,0.0,0.0,353.77288818359375,67.28937530517578,564.908447265625
2024-02-29 11:58:33.332038,527.8388061523438,37.47252655029297,389.6336975097656,633.8095092773438,568.5347900390625
2024-02-29 11:58:33.332206,45.128204345703125,421.062255859375,475.054931640625,0.0,784.5054931640625
2024-02-29 11:58:33.332340,1347.3992919921875,393.6629943847656,401.3186950683594,327.5824279785156,359.8168640136719
2024-02-29 11:58:33.375854,19.340660095214844,15.311355590820312,330.80584716796875,1534.3590087890625,35.4578742980957
2024-02-29 11:58:33.376049,66.0805892944336,0.0,378.75457763671875,1174.13916015625,332.8205261230469
2024-02-29 11:58:33.376228,1452.967041015625,357.80218505859375,385.20147705078125,0.0,109.19413757324219
2024-02-29 11:58:33.380731,1632.6739501953125,477.8754577636719,365.4578857421875,80.5860824584961,0.0
2024-02-29 11:58:33.380927,226.84982299804688,76.95970916748047,348.1318664550781,1396.959716796875,121.28205108642578
2024-02-29 11:58:33.381116,126.11721801757812,0.0,402.1245422363281,1465.054931640625,745.8241577148438
2024-02-29 11:58:33.381792,1437.6556396484375,254.65200805664062,425.8974304199219,175.6776580810547,425.0915832519531
2024-02-29 11:58:33.381978,2.8205127716064453,500.8424987792969,381.97802734375,0.0,0.0
2024-02-29 11:58:33.382165,346.1172180175781,176.88644409179688,361.025634765625,1216.4468994140625,58.82783889770508
2024-02-29 11:58:33.382353,0.0,0.0,431.1355285644531,15.714285850524902,1024.2490234375
2024-02-29 11:58:33.382608,1086.7032470703125,124.5054931640625,421.8681335449219,368.6813049316406,745.8241577148438
2024-02-29 11:58:33.382827,141.42857360839844,488.75457763671875,391.24542236328125,0.0,0.0
2024-02-29 11:58:33.429282,793.3699340820312,306.22711181640625,379.5604248046875,754.6886596679688,141.025634765625
2024-02-29 11:58:33.429717,0.0,0.0,406.1538391113281,1645.164794921875,1026.2637939453125
2024-02-29 11:58:33.430040,406.959716796875,28.205127716064453,395.6776428222656,668.8644409179688,473.040283203125
2024-02-29 11:58:33.430368,3.2234432697296143,431.94140625,375.1282043457031,0.0,0.0
2024-02-29 11:58:33.432337,1428.3883056640625,426.30035400390625,385.6044006347656,344.5054931640625,85.4212417602539
2024-02-29 11:58:33.432835,65.27472686767578,26.190475463867188,385.20147705078125,1557.7288818359375,679.3406372070312
2024-02-29 11:58:33.433259,25.384614944458008,0.0,393.6629943847656,1294.21240234375,838.901123046875
2024-02-29 11:58:33.433692,1412.2711181640625,337.6556701660156,407.76556396484375,0.0,84.61538696289062
2024-02-29 11:58:33.434021,4.432234287261963,484.3223571777344,422.27105712890625,82.6007308959961,19.340660095214844
2024-02-29 11:58:33.434387,241.75823974609375,89.45054626464844,447.25274658203125,1448.1318359375,1352.6373291015625
2024-02-29 11:58:33.434670,0.0,0.0,381.1721496582031,1605.6776123046875,1187.4359130859375
2024-02-29 11:58:33.434873,1348.6080322265625,233.2967071533203,352.5641174316406,228.86447143554688,35.05494689941406
2024-02-29 11:58:33.476878,53.589744567871094,506.8864440917969,394.8717956542969,0.0,0.0
2024-02-29 11:58:33.477103,398.4981689453125,191.7948760986328,365.8608093261719,1212.4176025390625,134.1758270263672
2024-02-29 11:58:33.477264,0.0,0.0,365.8608093261719,1.2087912559509277,447.25274658203125
2024-02-29 11:58:33.477412,965.018310546875,103.95604705810547,374.3223571777344,329.5970764160156,172.85714721679688
2024-02-29 11:58:33.477581,130.14651489257812,465.3846130371094,423.4798583984375,0.0,2.8205127716064453
2024-02-29 11:58:33.479183,929.96337890625,319.1208801269531,419.4505615234375,966.6300659179688,304.6153869628906
2024-02-29 11:58:33.480904,0.0,0.0,360.21978759765625,65.27472686767578,693.040283203125
2024-02-29 11:58:33.481157,291.3186950683594,13.296703338623047,360.21978759765625,747.8388061523438,281.6483459472656
2024-02-29 11:58:33.481347,1602.4542236328125,395.27471923828125,455.71429443359375,0.0,235.3113555908203
2024-02-29 11:58:33.481562,1499.7069091796875,428.71795654296875,424.28570556640625,179.3040313720703,401.3186950683594
2024-02-29 11:58:33.481761,113.62637329101562,41.098899841308594,328.79119873046875,1475.128173828125,61.64834976196289
2024-02-29 11:58:33.481963,0.0,0.0,360.21978759765625,1365.5311279296875,170.8424835205078
2024-02-29 11:58:33.503667,1387.6922607421875,309.4505615234375,385.6044006347656,13.296703338623047,92.27106475830078
2024-02-29 11:58:33.503936,5.238095283508301,487.1428527832031,374.3223571777344,10.476190567016602,0.0
2024-02-29 11:58:33.504224,250.21978759765625,110.0,350.952392578125,1351.83154296875,52.78388214111328
2024-02-29 11:58:33.504436,0.0,0.0,360.21978759765625,1647.179443359375,322.3443298339844
2024-02-29 11:58:33.504661,1289.7802734375,188.1685028076172,394.0659484863281,251.42857360839844,239.74359130859375
2024-02-29 11:58:33.504872,73.73626708984375,491.1721496582031,402.5274658203125,0.0,0.0
2024-02-29 11:58:33.505823,459.3406677246094,211.13552856445312,380.3663024902344,1165.6776123046875,207.10623168945312
2024-02-29 11:58:33.506063,0.0,0.0,374.72528076171875,126.11721801757812,751.8681030273438
2024-02-29 11:58:33.506303,819.1575317382812,72.93040466308594,478.27838134765625,780.879150390625,1546.849853515625
2024-02-29 11:58:33.507157,118.86447143554688,449.26739501953125,501.24542236328125,0.0,1237.3992919921875
2024-02-29 11:58:33.507366,1057.2894287109375,355.3846130371094,373.1135559082031,522.6007080078125,105.16483306884766
2024-02-29 11:58:33.507842,0.0,0.0,340.0732727050781,1630.2564697265625,307.032958984375
2024-02-29 11:58:33.554329,203.07691955566406,0.8058608174324036,365.8608093261719,893.2966918945312,338.8644714355469
2024-02-29 11:58:33.554751,1547.2528076171875,381.5751037597656,372.71063232421875,0.0,0.0
2024-02-29 11:58:33.555053,1556.5201416015625,440.4029235839844,367.8754577636719,170.03663635253906,0.0
2024-02-29 11:58:33.555327,155.93406677246094,48.75457763671875,365.4578857421875,1456.5933837890625,394.4688720703125
2024-02-29 11:58:33.555584,0.0,0.0,384.79852294921875,1560.5494384765625,552.8204956054688
2024-02-29 11:58:33.555834,1381.6483154296875,293.73626708984375,408.5714416503906,139.010986328125,120.07325744628906
2024-02-29 11:58:33.556096,4.029304027557373,487.5457763671875,412.19781494140625,10.879120826721191,0.0
2024-02-29 11:58:33.561525,255.45787048339844,120.07325744628906,445.23809814453125,1419.120849609375,742.6007080078125
2024-02-29 11:58:33.561835,0.0,0.0,472.6373596191406,1642.7471923828125,1560.146484375
2024-02-29 11:58:33.562016,1240.6226806640625,175.6776580810547,390.03662109375,257.8754577636719,377.1428527832031
2024-02-29 11:58:33.562181,99.12088012695312,512.12451171875,372.71063232421875,0.0,0.0
2024-02-29 11:58:33.562355,538.7179565429688,250.62271118164062,384.3955993652344,1237.80224609375,298.5714416503906
2024-02-29 11:58:33.606902,0.0,0.0,349.74359130859375,56.00732421875,257.4725341796875
2024-02-29 11:58:33.607101,690.2197875976562,62.85714340209961,352.1611633300781,442.4175720214844,36.66666793823242
2024-02-29 11:58:33.607280,92.67399597167969,453.69964599609375,390.8424987792969,0.0,18.131868362426758
2024-02-29 11:58:33.607426,1213.6263427734375,371.9047546386719,377.1428527832031,664.4322509765625,22.16117286682129
2024-02-29 11:58:33.607586,0.0,0.0,350.1465148925781,23.77289390563965,220.0
2024-02-29 11:58:33.607724,137.39926147460938,0.0,371.9047546386719,1018.6080322265625,378.75457763671875
2024-02-29 11:58:33.607863,1501.3187255859375,363.8461608886719,420.25640869140625,0.0,47.9487190246582
2024-02-29 11:58:33.608010,1607.6922607421875,449.26739501953125,487.5457763671875,460.952392578125,867.912109375
2024-02-29 11:58:33.608144,203.07691955566406,57.619049072265625,389.23077392578125,15.311355590820312,1196.3004150390625
2024-02-29 11:58:33.608626,0.0,0.0,333.6263732910156,1489.230712890625,216.77655029296875
2024-02-29 11:58:33.608752,1381.6483154296875,276.8132019042969,421.8681335449219,172.85714721679688,86.63003540039062
2024-02-29 11:58:33.608896,9.670330047607422,498.4248962402344,407.76556396484375,0.0,209.12088012695312
2024-02-29 11:58:33.653572,282.8571472167969,146.6666717529297,342.4908447265625,1336.923095703125,40.29304122924805
2024-02-29 11:58:33.653951,0.0,0.0,344.9084167480469,1648.3883056640625,119.67032623291016
2024-02-29 11:58:33.655100,1161.245361328125,141.42857360839844,396.0805969238281,287.69232177734375,93.47985076904297
2024-02-29 11:58:33.655320,123.69963073730469,497.21612548828125,392.4542236328125,0.0,0.0
2024-02-29 11:58:33.655507,652.7472534179688,276.8132019042969,354.1758117675781,986.7765502929688,54.39560317993164
2024-02-29 11:58:33.655692,0.0,0.0,376.73992919921875,100.73259735107422,514.5421142578125
2024-02-29 11:58:33.655855,545.1648559570312,40.29304122924805,444.4322204589844,882.4176025390625,1023.8461303710938
2024-02-29 11:58:33.656025,51.17216110229492,442.8205261230469,433.1501770019531,0.0,663.2234497070312
2024-02-29 11:58:33.656182,1329.6702880859375,413.003662109375,355.78753662109375,431.1355285644531,0.0
2024-02-29 11:58:33.658050,0.0,12.893773078918457,344.9084167480469,1649.194091796875,188.1685028076172
2024-02-29 11:58:33.658261,89.85347747802734,0.0,389.6336975097656,1195.091552734375,488.75457763671875
2024-02-29 11:58:33.658459,1464.2490234375,362.6373596191406,396.4835205078125,0.0,123.69963073730469
2024-02-29 11:58:33.704050,1398.974365234375,427.9120788574219,376.3370056152344,339.6703186035156,0.0
2024-02-29 11:58:33.704289,123.69963073730469,55.20146560668945,389.6336975097656,1554.1025390625,526.2271118164062
2024-02-29 11:58:33.705619,6.4468865394592285,0.0,421.062255859375,1552.4908447265625,1149.157470703125
2024-02-29 11:58:33.705802,1359.89013671875,258.6813049316406,394.8717956542969,207.5091552734375,294.1391906738281
2024-02-29 11:58:33.705957,25.787546157836914,516.1538696289062,375.1282043457031,0.0,0.0
2024-02-29 11:58:33.706125,317.9120788574219,162.7838897705078,409.78021240234375,1344.17578125,522.6007080078125
2024-02-29 11:58:33.706265,0.0,0.0,433.5531005859375,7.252747058868408,1325.6409912109375
2024-02-29 11:58:33.706492,1083.8828125,127.32600402832031,406.959716796875,333.6263732910156,686.996337890625
2024-02-29 11:58:33.706696,131.75823974609375,489.96337890625,377.1428527832031,0.0,0.0
2024-02-29 11:58:33.706973,736.5567626953125,298.5714416503906,383.1867980957031,895.7142944335938,205.89743041992188
2024-02-29 11:58:33.707142,0.0,0.0,442.4175720214844,40.29304122924805,1309.9267578125
2024-02-29 11:58:33.707289,393.6629943847656,29.41391944885254,388.02197265625,643.4798583984375,597.1428833007812
2024-02-29 11:58:33.752105,1643.9560546875,416.22711181640625,369.0842590332031,0.0,0.0
2024-02-29 11:58:33.752327,1396.959716796875,396.8864440917969,398.9010925292969,421.8681335449219,134.1758270263672
2024-02-29 11:58:33.752504,41.098899841308594,18.937728881835938,354.5787658691406,1621.794921875,282.4542236328125
2024-02-29 11:58:33.752646,25.384614944458008,0.0,351.3553161621094,1224.1025390625,242.1611785888672
2024-02-29 11:58:33.752765,1401.794921875,321.5384521484375,402.9303894042969,0.0,0.0
2024-02-29 11:58:33.752891,2.4175825119018555,452.8937683105469,460.952392578125,228.05860900878906,337.25274658203125
2024-02-29 11:58:33.753029,237.3260040283203,78.16849517822266,415.018310546875,1564.981689453125,1248.2784423828125
2024-02-29 11:58:33.753144,0.0,0.0,343.69964599609375,1574.2490234375,566.5201416015625
2024-02-29 11:58:33.753257,1349.010986328125,230.07325744628906,380.76922607421875,233.6996307373047,0.0
2024-02-29 11:58:33.753362,45.128204345703125,504.0659484863281,453.29669189453125,0.0,238.53480529785156
2024-02-29 11:58:33.753466,379.96337890625,186.95970153808594,404.945068359375,1219.2674560546875,287.69232177734375
2024-02-29 11:58:33.755446,0.0,0.0,346.1172180175781,3.626373529434204,233.2967071533203
2024-02-29 11:58:33.798248,975.091552734375,105.56776428222656,379.96337890625,343.29669189453125,107.5824203491211
2024-02-29 11:58:33.798415,139.41392517089844,474.6520080566406,405.3479919433594,0.0,76.55677795410156
2024-02-29 11:58:33.800162,915.054931640625,322.3443298339844,369.0842590332031,769.1941528320312,37.875457763671875
2024-02-29 11:58:33.800311,0.0,0.0,341.6849670410156,45.128204345703125,186.15383911132812
2024-02-29 11:58:33.800438,321.1355285644531,17.326007843017578,379.5604248046875,817.1428833007812,166.00732421875
2024-02-29 11:58:33.800557,1610.915771484375,408.1684875488281,424.28570556640625,0.0,7.655677795410156
2024-02-29 11:58:33.800668,1336.5201416015625,391.6483459472656,410.1831359863281,561.6849975585938,85.01831817626953
2024-02-29 11:58:33.800774,52.380950927734375,20.549449920654297,373.1135559082031,22.96703338623047,494.79852294921875
2024-02-29 11:58:33.800888,23.369962692260742,0.0,396.4835205078125,1419.9267578125,770.4029541015625
2024-02-29 11:58:33.800982,1381.245361328125,312.27105712890625,497.6190490722656,131.35531616210938,1233.3699951171875
2024-02-29 11:58:33.801108,10.879120826721191,495.20147705078125,487.94873046875,0.4029304087162018,1100.4029541015625
2024-02-29 11:58:33.801203,244.57875061035156,112.82051086425781,363.040283203125,1390.5128173828125,216.77655029296875
2024-02-29 11:58:33.845061,0.0,0.0,346.5201416015625,1631.062255859375,290.1098937988281
2024-02-29 11:58:33.845211,1314.3590087890625,209.92674255371094,386.00732421875,275.6044006347656,203.4798583984375
2024-02-29 11:58:33.845317,80.989013671875,521.3919677734375,374.3223571777344,0.0,0.0
2024-02-29 11:58:33.845417,461.3553161621094,224.8351593017578,358.20513916015625,1054.871826171875,37.875457763671875
2024-02-29 11:58:33.846301,0.0,0.0,390.4395751953125,21.355310440063477,649.5238037109375
2024-02-29 11:58:33.846389,910.2197875976562,87.43589782714844,411.79486083984375,473.040283203125,585.4578857421875
2024-02-29 11:58:33.846472,150.2930450439453,477.0696105957031,409.3772888183594,0.0,2.4175825119018555
2024-02-29 11:58:33.846554,1042.3809814453125,352.967041015625,377.94873046875,565.3113403320312,0.0
2024-02-29 11:58:33.846634,0.0,0.0,423.0769348144531,1615.3480224609375,958.5714111328125
2024-02-29 11:58:33.846713,307.4358825683594,28.60805892944336,423.4798583984375,852.6007080078125,1134.6519775390625
2024-02-29 11:58:33.847662,1592.783935546875,416.22711181640625,384.3955993652344,0.0,0.0
2024-02-29 11:58:33.847742,1534.761962890625,467.80218505859375,377.94873046875,161.97802734375,15.311355590820312
2024-02-29 11:58:33.894183,159.56044006347656,55.20146560668945,404.945068359375,1466.2637939453125,923.113525390625
2024-02-29 11:58:33.899550,0.0,0.0,377.5457763671875,1413.8828125,549.1941528320312
2024-02-29 11:58:33.899634,1387.6922607421875,306.6300354003906,369.4871826171875,21.355310440063477,0.0
2024-02-29 11:58:33.899722,1649.194091796875,496.8132019042969,393.26007080078125,28.60805892944336,40.29304122924805
2024-02-29 11:58:33.899803,257.0696105957031,122.0879135131836,363.040283203125,1384.06591796875,241.75823974609375
2024-02-29 11:58:33.904137,0.0,0.0,383.1867980957031,1576.2637939453125,665.2380981445312
2024-02-29 11:58:33.904261,1272.4542236328125,164.7985382080078,413.80950927734375,211.53846740722656,283.6629943847656
2024-02-29 11:58:33.904353,83.4065933227539,486.73992919921875,415.018310546875,0.0,0.0
2024-02-29 11:58:33.904485,536.7033081054688,230.4761962890625,459.3406677246094,1348.6080322265625,1249.89013671875
2024-02-29 11:58:33.904624,0.0,0.0,386.4102478027344,16.5201473236084,1266.813232421875
2024-02-29 11:58:33.904730,705.93408203125,69.30403137207031,343.29669189453125,409.78021240234375,108.79120635986328
2024-02-29 11:58:33.904871,95.0915756225586,462.5641174316406,390.8424987792969,0.0,0.0
2024-02-29 11:58:33.924511,1170.5128173828125,376.3370056152344,389.23077392578125,471.025634765625,131.75823974609375
2024-02-29 11:58:33.924648,0.0,0.0,356.5934143066406,1589.157470703125,378.3516540527344
2024-02-29 11:58:33.924749,145.45787048339844,0.0,356.19049072265625,925.1282348632812,156.3369903564453
2024-02-29 11:58:33.924845,1502.930419921875,363.040283203125,434.3589782714844,0.0,29.816850662231445
2024-02-29 11:58:33.924934,1599.6336669921875,454.5054931640625,405.3479919433594,119.67032623291016,68.9011001586914
2024-02-29 11:58:33.926134,193.003662109375,61.24542236328125,349.74359130859375,1418.3150634765625,369.8901062011719
2024-02-29 11:58:33.926241,0.0,0.0,381.5751037597656,1545.6409912109375,583.040283203125
2024-02-29 11:58:33.927973,1382.857177734375,269.96337890625,464.1758117675781,160.36630249023438,453.29669189453125
2024-02-29 11:58:33.928058,4.029304027557373,490.76922607421875,428.71795654296875,0.0,327.5824279785156
2024-02-29 11:58:33.928140,276.00732421875,145.45787048339844,337.6556701660156,1235.3846435546875,26.996337890625
2024-02-29 11:58:33.928221,0.0,0.0,351.75823974609375,1623.8095703125,223.62637329101562
2024-02-29 11:58:33.928298,1161.6483154296875,141.8314971923828,398.4981689453125,312.27105712890625,199.04762268066406
2024-02-29 11:58:33.972078,116.84981536865234,495.20147705078125,386.00732421875,0.0,4.432234287261963
2024-02-29 11:58:33.972224,621.7216186523438,267.5457763671875,343.69964599609375,694.6520385742188,0.0
2024-02-29 11:58:33.972334,0.0,0.0,353.3699645996094,1623.003662109375,342.4908447265625
2024-02-29 11:58:33.976551,552.4176025390625,43.91941452026367,395.27471923828125,648.7179565429688,532.2710571289062
2024-02-29 11:58:33.976642,51.57509231567383,425.8974304199219,419.047607421875,0.0,80.5860824584961
2024-02-29 11:58:33.976731,1293.8095703125,374.72528076171875,402.9303894042969,419.8534851074219,33.44322204589844
2024-02-29 11:58:33.976822,0.0,7.655677795410156,377.1428527832031,1556.1171875,597.5457763671875
2024-02-29 11:58:33.976910,77.36264038085938,0.0,461.75823974609375,1349.81689453125,1525.8974609375
2024-02-29 11:58:33.976996,1447.3260498046875,340.8791198730469,496.4102478027344,66.88644409179688,1380.842529296875
2024-02-29 11:58:33.977345,1630.6593017578125,466.996337890625,387.6190490722656,0.0,176.4835205078125
2024-02-29 11:58:33.977437,215.1648406982422,74.94505310058594,352.5641174316406,1332.893798828125,201.06227111816406
2024-02-29 11:58:33.977529,0.0,0.0,352.967041015625,1492.05126953125,400.5128173828125
2024-02-29 11:58:34.021831,1382.4542236328125,254.24908447265625,365.8608093261719,128.53480529785156,8.461538314819336
2024-02-29 11:58:34.023875,9.267398834228516,499.6336975097656,373.1135559082031,0.0,0.0
2024-02-29 11:58:34.023995,307.4358825683594,158.35165405273438,371.5018310546875,1082.6739501953125,253.84616088867188
2024-02-29 11:58:34.024116,0.0,0.0,354.5787658691406,1618.5714111328125,400.9157409667969
2024-02-29 11:58:34.026138,1070.18310546875,120.47618865966797,368.27838134765625,317.9120788574219,94.28571319580078
2024-02-29 11:58:34.026252,115.23809814453125,466.5934143066406,419.8534851074219,0.0,0.0
2024-02-29 11:58:34.026371,676.1171875,264.72528076171875,437.5824279785156,892.4908447265625,551.2088012695312
2024-02-29 11:58:34.026563,0.0,0.0,404.1391906738281,22.564102172851562,1316.776611328125
2024-02-29 11:58:34.026694,342.8937683105469,26.996337890625,354.981689453125,523.003662109375,336.8498229980469
2024-02-29 11:58:34.026841,1616.959716796875,371.0989074707031,372.71063232421875,0.0,0.0
2024-02-29 11:58:34.026957,1224.908447265625,327.9853515625,433.9560546875,646.7033081054688,522.6007080078125
2024-02-29 11:58:34.027079,0.0,1.6117216348648071,375.5311279296875,33.846153259277344,554.029296875
2024-02-29 11:58:34.072085,22.564102172851562,0.0,334.4322204589844,931.97802734375,174.06593322753906
2024-02-29 11:58:34.072237,1411.062255859375,174.87179565429688,381.5751037597656,0.0,62.0512809753418
2024-02-29 11:58:34.072391,1261.97802734375,209.5238037109375,373.1135559082031,0.0,16.5201473236084
2024-02-29 11:58:34.073032,55.60439682006836,19.743589401245117,346.9230651855469,1107.2528076171875,366.6666564941406
2024-02-29 11:58:34.073191,0.0,0.0,344.9084167480469,1511.3919677734375,709.5604248046875
2024-02-29 11:58:34.080970,562.4908447265625,37.47252655029297,390.8424987792969,110.4029312133789,367.4725341796875
2024-02-29 11:58:34.081117,1379.230712890625,132.96702575683594,473.8461608886719,0.0,928.3516235351562
2024-02-29 11:58:34.081264,327.1794738769531,43.11355209350586,407.3626403808594,1201.135498046875,1273.6629638671875
2024-02-29 11:58:34.081413,0.0,0.0,327.5824279785156,1565.78759765625,786.923095703125
2024-02-29 11:58:34.082192,382.3809509277344,23.77289390563965,394.4688720703125,298.974365234375,538.3150024414062
2024-02-29 11:58:34.082345,1458.205078125,234.90843200683594,472.23443603515625,0.0,778.4615478515625
2024-02-29 11:58:34.082499,584.2490844726562,142.63735961914062,377.1428527832031,922.3076782226562,257.0696105957031
2024-02-29 11:58:34.128766,0.0,0.0,328.3882751464844,122.8937759399414,141.025634765625
2024-02-29 11:58:34.129122,191.7948760986328,7.252747058868408,386.8132019042969,1113.6995849609375,406.1538391113281
2024-02-29 11:58:34.129438,1465.4578857421875,302.6007385253906,382.78387451171875,0.0,109.5970687866211
2024-02-29 11:58:34.131128,1394.5421142578125,333.6263732910156,358.6080627441406,624.945068359375,0.0
2024-02-29 11:58:34.131429,0.4029304087162018,21.758241653442383,344.9084167480469,63.260074615478516,175.6776580810547
2024-02-29 11:58:34.131733,17.326007843017578,0.0,400.5128173828125,1571.4285888671875,849.3773193359375
2024-02-29 11:58:34.132034,1371.172119140625,295.3479919433594,433.9560546875,241.35531616210938,518.974365234375
2024-02-29 11:58:34.132332,11.684981346130371,471.025634765625,376.73992919921875,118.86447143554688,0.0
2024-02-29 11:58:34.132633,240.95237731933594,102.74725341796875,350.5494384765625,1531.94140625,119.26740264892578
2024-02-29 11:58:34.132951,0.0,0.0,429.1208801269531,31.0256404876709,964.2124633789062
2024-02-29 11:58:34.133257,1324.4322509765625,221.2087860107422,404.945068359375,326.3736267089844,529.4505615234375
2024-02-29 11:58:34.133491,90.65933990478516,536.7033081054688,367.8754577636719,0.0,0.0
2024-02-29 11:58:34.177846,465.3846130371094,228.86447143554688,385.6044006347656,1334.908447265625,321.5384521484375
2024-02-29 11:58:34.178240,0.0,0.0,412.6007385253906,155.12820434570312,1122.967041015625
2024-02-29 11:58:34.178560,971.062255859375,110.0,391.6483459472656,695.8607788085938,431.1355285644531
2024-02-29 11:58:34.178868,155.93406677246094,523.4066162109375,373.9194030761719,0.0,0.0
2024-02-29 11:58:34.179160,1119.7435302734375,395.6776428222656,389.6336975097656,1116.923095703125,112.4175796508789
2024-02-29 11:58:34.179462,0.0,0.0,388.8278503417969,172.05128479003906,728.901123046875
2024-02-29 11:58:34.179768,313.4798583984375,10.073260307312012,399.70697021484375,1246.6666259765625,717.2161254882812
2024-02-29 11:58:34.183168,1619.3773193359375,445.6410217285156,418.6446838378906,58.42490768432617,3.2234432697296143
2024-02-29 11:58:34.183493,1570.2197265625,503.6629943847656,405.75091552734375,484.3223571777344,47.5457878112793
2024-02-29 11:58:34.183755,199.45054626464844,56.00732421875,455.31134033203125,49.96337127685547,1365.128173828125
2024-02-29 11:58:34.183989,0.0,0.0,423.8827819824219,1525.8974609375,1270.4395751953125
2024-02-29 11:58:34.184221,1411.8681640625,361.8315124511719,373.5164794921875,177.2893829345703,41.098899841308594
2024-02-29 11:58:34.225598,15.714285850524902,586.2637329101562,392.05126953125,85.82417297363281,31.428571701049805
2024-02-29 11:58:34.225795,251.8314971923828,158.75457763671875,355.3846130371094,1496.886474609375,163.1868133544922
2024-02-29 11:58:34.228552,0.0,0.0,345.71429443359375,30.21977996826172,166.00732421875
2024-02-29 11:58:34.228776,1305.8974609375,231.6849822998047,392.05126953125,306.6300354003906,58.42490768432617
2024-02-29 11:58:34.228960,147.06959533691406,587.87548828125,415.4212341308594,0.0,62.0512809753418
2024-02-29 11:58:34.229209,645.091552734375,304.21246337890625,397.69232177734375,1338.1318359375,367.4725341796875
2024-02-29 11:58:34.229396,0.0,0.0,369.0842590332031,138.60806274414062,563.2966918945312
2024-02-29 11:58:34.229546,981.1355590820312,110.0,375.5311279296875,620.10986328125,126.11721801757812
2024-02-29 11:58:34.229770,163.1868133544922,559.6703491210938,463.3699645996094,0.0,188.974365234375
2024-02-29 11:58:34.229950,1328.4615478515625,466.19049072265625,414.6153869628906,1137.069580078125,441.6117248535156
2024-02-29 11:58:34.230074,40.69597244262695,14.505494117736816,326.77655029296875,156.3369903564453,55.60439682006836
2024-02-29 11:58:34.251993,1634.6885986328125,477.0696105957031,402.9303894042969,0.0,72.12454223632812
2024-02-29 11:58:34.252119,1598.02197265625,579.8168334960938,375.9340515136719,263.9194030761719,0.0
2024-02-29 11:58:34.252278,235.7142791748047,86.22710418701172,344.5054931640625,1588.754638671875,70.9157485961914
2024-02-29 11:58:34.252401,0.0,0.0,371.0989074707031,1591.172119140625,183.73626708984375
2024-02-29 11:58:34.253590,1398.5714111328125,354.981689453125,402.9303894042969,197.43589782714844,83.4065933227539
2024-02-29 11:58:34.253736,1461.025634765625,520.989013671875,403.3333435058594,332.8205261230469,32.234432220458984
2024-02-29 11:58:34.253860,207.91209411621094,149.4871826171875,378.75457763671875,1520.2564697265625,258.6813049316406
2024-02-29 11:58:34.253980,0.0,0.0,381.5751037597656,71.72161102294922,661.6116943359375
2024-02-29 11:58:34.254100,1253.5164794921875,192.60073852539062,482.71063232421875,630.5860595703125,1425.5677490234375
2024-02-29 11:58:34.256748,161.1721649169922,576.5933837890625,501.6483459472656,0.0,1179.3773193359375
2024-02-29 11:58:34.257749,762.7472534179688,333.22344970703125,374.72528076171875,1149.96337890625,111.61172485351562
2024-02-29 11:58:34.257870,0.0,0.0,338.05859375,100.73259735107422,244.1758270263672
2024-02-29 11:58:34.301555,812.7106323242188,75.34798431396484,371.5018310546875,579.8168334960938,235.7142791748047
2024-02-29 11:58:34.301656,134.981689453125,526.2271118164062,379.1575012207031,0.0,0.0
2024-02-29 11:58:34.301718,1370.769287109375,467.80218505859375,369.8901062011719,548.7911987304688,14.908425331115723
2024-02-29 11:58:34.302728,59.63370132446289,21.758241653442383,369.8901062011719,4.835165023803711,445.6410217285156
2024-02-29 11:58:34.302800,158.35165405273438,0.0,371.9047546386719,1097.9853515625,322.3443298339844
2024-02-29 11:58:34.302861,1554.5054931640625,415.018310546875,411.79486083984375,0.0,0.0
2024-02-29 11:58:34.304099,1625.4212646484375,539.120849609375,403.3333435058594,157.14285278320312,0.0
2024-02-29 11:58:34.304176,245.7875518798828,89.45054626464844,422.27105712890625,1476.7398681640625,738.5714111328125
2024-02-29 11:58:34.304235,0.0,0.0,422.6739807128906,1607.6922607421875,1256.3370361328125
2024-02-29 11:58:34.304288,1367.142822265625,311.8681335449219,374.3223571777344,211.13552856445312,182.93040466308594
2024-02-29 11:58:34.304345,56.00732421875,574.5787353515625,379.1575012207031,0.0,0.0
2024-02-29 11:58:34.304398,341.28204345703125,191.39193725585938,425.8974304199219,1346.996337890625,704.7252807617188
2024-02-29 11:58:34.350058,0.0,0.0,380.3663024902344,1649.5970458984375,547.1795043945312
2024-02-29 11:58:34.350167,1187.8388671875,159.96336364746094,359.4139099121094,281.6483459472656,0.0
2024-02-29 11:58:34.350261,158.35165405273438,542.3442993164062,401.72161865234375,0.0,40.69597244262695
2024-02-29 11:58:34.350360,849.3773193359375,332.0146484375,377.1428527832031,1029.89013671875,64.46886444091797
2024-02-29 11:58:34.350442,0.0,0.0,357.3992614746094,87.43589782714844,221.2087860107422
2024-02-29 11:58:34.352751,610.4395751953125,44.32234573364258,390.4395751953125,648.3150024414062,304.21246337890625
2024-02-29 11:58:34.352872,83.003662109375,481.0989074707031,430.73260498046875,0.0,29.41391944885254
2024-02-29 11:58:34.352952,1425.164794921875,450.8791198730469,481.5018310546875,825.2014770507812,944.4688720703125
2024-02-29 11:58:34.353017,86.63003540039062,24.175825119018555,395.6776428222656,111.20879364013672,1218.05859375
2024-02-29 11:58:34.353076,76.15384674072266,0.0,340.8791198730469,1004.1025390625,184.94505310058594
2024-02-29 11:58:34.353133,1483.5897216796875,377.5457763671875,402.1245422363281,0.0,0.0
2024-02-29 11:58:34.354113,1642.7471923828125,520.989013671875,407.3626403808594,63.663002014160156,67.69230651855469
2024-02-29 11:58:34.399338,240.14651489257812,96.30036926269531,354.5787658691406,1385.6776123046875,66.48351287841797
2024-02-29 11:58:34.399585,0.0,0.0,346.1172180175781,1553.2967529296875,78.57142639160156
2024-02-29 11:58:34.399719,1363.5164794921875,260.29302978515625,407.3626403808594,206.3003692626953,90.25640869140625
2024-02-29 11:58:34.400486,64.06593322753906,543.5531005859375,396.4835205078125,0.0,17.326007843017578
2024-02-29 11:58:34.400561,391.24542236328125,205.89743041992188,360.21978759765625,981.1355590820312,137.39926147460938
2024-02-29 11:58:34.400616,0.0,0.0,365.054931640625,1602.4542236328125,588.6813354492188
2024-02-29 11:58:34.400666,1082.2711181640625,120.47618865966797,440.4029235839844,388.8278503417969,848.5714111328125
2024-02-29 11:58:34.400717,156.3369903564453,504.0659484863281,471.4285583496094,0.0,779.2673950195312
2024-02-29 11:58:34.400768,915.054931640625,343.29669189453125,364.24908447265625,456.9230651855469,63.663002014160156
2024-02-29 11:58:34.401884,0.0,0.0,339.6703186035156,1540.4029541015625,131.75823974609375
2024-02-29 11:58:34.401949,396.0805969238281,22.564102172851562,392.8571472167969,814.7252807617188,359.010986328125
2024-02-29 11:58:34.402001,4.835165023803711,435.5677795410156,394.8717956542969,0.0,64.87179565429688
2024-02-29 11:58:34.446816,1474.3223876953125,446.8498229980469,360.6227111816406,141.8314971923828,0.0
2024-02-29 11:58:34.446915,108.38827514648438,35.4578742980957,357.3992614746094,1434.029296875,268.3516540527344
2024-02-29 11:58:34.446976,10.476190567016602,0.0,401.3186950683594,1397.3626708984375,747.032958984375
2024-02-29 11:58:34.447031,1410.6593017578125,340.0732727050781,392.8571472167969,25.787546157836914,220.8058624267578
2024-02-29 11:58:34.447811,4.835165023803711,502.4542236328125,368.6813049316406,3.2234432697296143,0.0
2024-02-29 11:58:34.447901,241.75823974609375,103.95604705810547,374.3223571777344,1345.3846435546875,430.3296813964844
2024-02-29 11:58:34.447960,0.0,0.0,456.5201416015625,4.432234287261963,1492.4542236328125
2024-02-29 11:58:34.448879,1334.908447265625,220.40292358398438,452.8937683105469,313.8827819824219,1024.6519775390625
2024-02-29 11:58:34.453571,73.33333587646484,521.3919677734375,376.3370056152344,0.0,0.0
2024-02-29 11:58:34.453702,440.80584716796875,215.56776428222656,373.9194030761719,1034.7252197265625,249.010986328125
2024-02-29 11:58:34.454805,0.0,0.0,372.30767822265625,1625.4212646484375,977.106201171875
2024-02-29 11:58:34.454886,936.8131713867188,100.32967376708984,364.24908447265625,363.8461608886719,263.9194030761719
2024-02-29 11:58:34.495255,144.24908447265625,489.1575012207031,384.3955993652344,0.0,0.0
2024-02-29 11:58:34.499150,1014.1758422851562,349.74359130859375,375.9340515136719,729.3040161132812,153.91941833496094
2024-02-29 11:58:34.499219,0.0,0.0,344.9084167480469,27.80219841003418,319.9267272949219
2024-02-29 11:58:34.499270,270.3663024902344,10.476190567016602,354.981689453125,822.3809814453125,128.13186645507812
2024-02-29 11:58:34.500229,1591.172119140625,413.003662109375,385.6044006347656,0.0,0.0
2024-02-29 11:58:34.500322,1535.5677490234375,458.1318664550781,408.974365234375,391.6483459472656,176.08058166503906
2024-02-29 11:58:34.500397,148.27838134765625,44.72527313232422,398.0952453613281,1620.5860595703125,747.8388061523438
2024-02-29 11:58:34.501596,0.0,0.0,389.23077392578125,1435.6409912109375,822.3809814453125
2024-02-29 11:58:34.501691,1390.5128173828125,321.1355285644531,386.8132019042969,69.30403137207031,31.0256404876709
2024-02-29 11:58:34.501771,6.043956279754639,498.8278503417969,469.8168640136719,104.35897064208984,440.0
2024-02-29 11:58:34.502563,246.59339904785156,114.02930450439453,435.970703125,1503.7362060546875,1229.7435302734375
2024-02-29 11:58:34.502639,0.0,0.0,337.6556701660156,1612.12451171875,443.22344970703125
2024-02-29 11:58:34.550266,1286.15380859375,187.36264038085938,375.1282043457031,272.3809509277344,3.2234432697296143
2024-02-29 11:58:34.550507,101.53845977783203,515.7509155273438,394.4688720703125,0.0,53.589744567871094
392578
2024-02-29 11:58:32.422960,1363.113525390625,226.44688415527344,412.19781494140625,188.974365234375,39.89011001582024-02-29 11:58:34.550669,524.2124633789062,247.39926147460938,358.20513916015625,1106.4468994140625,43.91941452026367
2024-02-29 11:58:34.551174,816.3369750976562,70.9157485961914,383.5897521972656,435.5677795410156,99.92674255371094
2024-02-29 11:58:34.551271,125.71428680419922,448.8644714355469,424.68865966796875,0.0,0.0
2024-02-29 11:58:34.551377,1173.7362060546875,362.23443603515625,410.989013671875,791.3552856445312,91.06227111816406
2024-02-29 11:58:34.551485,0.0,0.0,378.3516540527344,74.94505310058594,633.003662109375
2024-02-29 11:58:34.552280,193.40660095214844,0.0,396.0805969238281,1043.186767578125,705.1282348632812
2024-02-29 11:58:34.552357,1549.2674560546875,384.3955993652344,495.6044006347656,0.0,1012.5640869140625
2024-02-29 11:58:34.552448,1595.6043701171875,457.3260192871094,487.5457763671875,450.8791198730469,1156.00732421875
2024-02-29 11:58:34.552517,205.89743041992188,56.81318664550781,359.4139099121094,1642.7471923828125,326.77655029296875
2024-02-29 11:58:34.599594,0.0,0.0,365.8608093261719,1513.003662109375,273.5897521972656
2024-02-29 11:58:34.599954,1380.842529296875,306.22711181640625,390.8424987792969,199.04762268066406,182.12454223632812
2024-02-29 11:58:34.600129,11.684981346130371,532.2710571289062,362.23443603515625,0.0,0.0
2024-02-29 11:58:34.607665,265.1282043457031,144.65200805664062,349.74359130859375,1344.981689453125,45.128204345703125
2024-02-29 11:58:34.607757,0.0,0.0,389.23077392578125,9.670330047607422,531.062255859375
2024-02-29 11:58:34.609636,1226.5201416015625,233.2967071533203,420.25640869140625,307.4358825683594,376.3370056152344
2024-02-29 11:58:34.609716,124.9084243774414,548.3883056640625,406.5567626953125,0.0,0.0
2024-02-29 11:58:34.609773,624.1392211914062,272.3809509277344,367.8754577636719,1004.908447265625,0.0
2024-02-29 11:58:34.609832,0.0,0.0,417.8388366699219,95.8974380493164,943.2600708007812
2024-02-29 11:58:34.612141,703.113525390625,60.43955993652344,415.4212341308594,715.6043701171875,1021.8314819335938
2024-02-29 11:58:34.612247,100.73259735107422,469.4139099121094,390.4395751953125,0.0,0.0
2024-02-29 11:58:34.612331,1282.12451171875,392.8571472167969,413.003662109375,583.4432373046875,24.981685638427734
2024-02-29 11:58:34.641455,0.0,5.238095283508301,417.8388366699219,17.72893714904785,1035.5311279296875
2024-02-29 11:58:34.641557,120.47618865966797,0.0,379.5604248046875,992.4176025390625,633.003662109375
2024-02-29 11:58:34.641628,1499.3040771484375,368.6813049316406,361.8315124511719,0.0,0.0
2024-02-29 11:58:34.641709,1621.3919677734375,475.054931640625,394.4688720703125,138.60806274414062,69.30403137207031
2024-02-29 11:58:34.641790,219.59707641601562,68.9011001586914,366.6666564941406,1438.4615478515625,356.996337890625
2024-02-29 11:58:34.641851,0.0,0.0,367.4725341796875,1618.5714111328125,582.6373901367188
2024-02-29 11:58:34.641915,1379.6336669921875,268.75457763671875,410.5860900878906,193.40660095214844,113.62637329101562
2024-02-29 11:58:34.641975,16.923076629638672,507.69232177734375,425.4945068359375,0.0,0.0
2024-02-29 11:58:34.642045,296.1538391113281,154.72528076171875,471.8315124511719,1413.4798583984375,1328.4615478515625
2024-02-29 11:58:34.642100,0.0,0.0,394.8717956542969,1621.794921875,1238.205078125
2024-02-29 11:58:34.642161,1143.5164794921875,141.025634765625,347.72894287109375,305.018310546875,49.56044006347656
2024-02-29 11:58:34.642225,135.38461303710938,495.6044006347656,404.945068359375,0.0,2.4175825119018555
2024-02-29 11:58:34.686134,715.2014770507812,285.27471923828125,365.4578857421875,766.3735961914062,62.85714340209961
2024-02-29 11:58:34.686253,0.0,0.0,354.981689453125,3.2234432697296143,294.945068359375
2024-02-29 11:58:34.686322,518.974365234375,38.27838897705078,379.5604248046875,688.2051391601562,257.0696105957031
2024-02-29 11:58:34.686408,43.516483306884766,431.1355285644531,400.5128173828125,0.0,29.41391944885254
2024-02-29 11:58:34.686485,1377.6190185546875,410.1831359863281,390.4395751953125,324.76190185546875,51.17216110229492
2024-02-29 11:58:34.691926,41.098899841308594,20.549449920654297,375.1282043457031,1544.029296875,494.3955993652344
2024-02-29 11:58:34.692007,56.81318664550781,0.0,392.8571472167969,1237.3992919921875,562.087890625
2024-02-29 11:58:34.692068,1441.6849365234375,343.69964599609375,453.69964599609375,0.0,274.79852294921875
2024-02-29 11:58:34.693184,1645.164794921875,469.8168640136719,417.4358825683594,38.68132019042969,336.4468994140625
2024-02-29 11:58:34.693253,232.89376831054688,81.79486846923828,327.9853515625,1377.6190185546875,60.43955993652344
2024-02-29 11:58:34.693320,0.0,0.0,349.74359130859375,1598.827880859375,118.46154022216797
2024-02-29 11:58:34.693374,1371.172119140625,240.54945373535156,396.8864440917969,222.41758728027344,124.1025619506836
2024-02-29 11:58:34.716259,35.05494689941406,504.4688720703125,379.96337890625,0.0,0.0
2024-02-29 11:58:34.716498,352.1611633300781,176.4835205078125,344.5054931640625,1143.113525390625,6.4468865394592285
2024-02-29 11:58:34.717731,0.0,0.0,356.996337890625,10.073260307312012,296.1538391113281
2024-02-29 11:58:34.717836,1043.186767578125,115.64102935791016,379.5604248046875,379.96337890625,293.3333435058594
2024-02-29 11:58:34.717910,139.41392517089844,476.26373291015625,398.4981689453125,0.0,0.0
2024-02-29 11:58:34.717992,816.7399291992188,296.5567626953125,395.27471923828125,752.6740112304688,105.56776428222656
2024-02-29 11:58:34.718074,0.0,0.0,377.1428527832031,50.769229888916016,740.989013671875
2024-02-29 11:58:34.718137,365.4578857421875,18.53479766845703,472.23443603515625,1073.8095703125,1566.1904296875
2024-02-29 11:58:34.718202,1633.076904296875,400.1098937988281,500.8424987792969,0.0,1331.6849365234375
2024-02-29 11:58:34.718271,1452.1611328125,425.4945068359375,375.9340515136719,110.0,148.6813201904297
2024-02-29 11:58:34.718340,77.76556396484375,33.44322204589844,350.1465148925781,1473.113525390625,237.3260040283203
2024-02-29 11:58:34.718402,11.282051086425781,0.0,368.27838134765625,1209.5970458984375,370.29302978515625
2024-02-29 11:58:34.784356,1399.7802734375,331.6117248535156,369.0842590332031,0.0,0.0
2024-02-29 11:58:34.784476,5.641025543212891,486.73992919921875,378.3516540527344,24.578754425048828,0.0
2024-02-29 11:58:34.784548,243.36996459960938,96.70330047607422,377.5457763671875,1334.1025390625,333.22344970703125
2024-02-29 11:58:34.784651,0.0,0.0,363.4432373046875,1614.5421142578125,439.5970764160156
2024-02-29 11:58:34.784754,1336.923095703125,214.35897827148438,371.9047546386719,226.44688415527344,67.28937530517578
2024-02-29 11:58:34.785327,53.99267578125,496.4102478027344,395.6776428222656,0.0,0.0
2024-02-29 11:58:34.785401,408.974365234375,191.39193725585938,423.8827819824219,1183.4066162109375,632.6007080078125
2024-02-29 11:58:34.789724,0.0,0.0,403.3333435058594,1647.179443359375,1316.776611328125
2024-02-29 11:58:34.789799,917.069580078125,95.0915756225586,363.8461608886719,321.5384521484375,277.6190490722656
2024-02-29 11:58:34.789870,129.3406524658203,469.8168640136719,381.5751037597656,0.0,0.0
2024-02-29 11:58:34.789941,928.3516235351562,327.1794738769531,429.9267272949219,926.3369750976562,540.7326049804688
2024-02-29 11:58:34.790004,0.0,0.0,377.1428527832031,77.36264038085938,589.89013671875
2024-02-29 11:58:34.834432,255.05494689941406,10.879120826721191,346.1172180175781,703.5164794921875,98.71794891357422
2024-02-29 11:58:34.834623,1585.128173828125,390.03662109375,391.6483459472656,0.0,22.564102172851562
2024-02-29 11:58:34.834703,1498.901123046875,425.0915832519531,379.5604248046875,141.025634765625,56.81318664550781
2024-02-29 11:58:34.834807,106.77655792236328,39.89011001586914,348.937744140625,1428.3883056640625,170.8424835205078
2024-02-29 11:58:34.834893,225.23809814453125,0.0,381.5751037597656,1207.5823974609375,341.6849670410156
2024-02-29 11:58:34.835423,1485.201416015625,304.21246337890625,425.8974304199219,0.0,140.21978759765625
2024-02-29 11:58:34.835501,1612.5274658203125,448.4615478515625,472.23443603515625,130.14651489257812,673.2966918945312
2-29 11:58:34.229950,1328.4615478515625,466.19049072265625,414.6153869628906,1137.0695800782024-02-29 11:58:34.835570,273.1867980957031,102.34432220458984,413.003662109375,1458.205078125,1053.6629638671875
2024-02-29 11:58:34.836670,1269.230712890625,169.63369750976562,406.5567626953125,291.3186950683594,155.5311279296875
2024-02-29 11:58:34.836740,75.75091552734375,460.952392578125,486.3370056152344,0.0,743.003662109375
2024-02-29 11:58:34.836806,475.8608093261719,204.2857208251953,376.73992919921875,790.1465454101562,395.27471923828125
2024-02-29 11:58:34.883010,0.0,0.0,322.74725341796875,1557.7288818359375,22.16117286682129
2024-02-29 11:58:34.883134,742.1978149414062,64.46886444091797,392.8571472167969,440.80584716796875,144.24908447265625
2024-02-29 11:58:34.883238,98.71794891357422,438.3882751464844,394.4688720703125,0.0,34.652015686035156
2024-02-29 11:58:34.883340,1068.5714111328125,339.6703186035156,361.025634765625,410.989013671875,0.0
2024-02-29 11:58:34.883424,0.0,0.0,344.9084167480469,1539.194091796875,153.5164794921875
2024-02-29 11:58:34.883515,169.23077392578125,0.0,406.959716796875,1124.981689453125,716.4102783203125
2024-02-29 11:58:34.883887,1513.8095703125,356.996337890625,435.970703125,0.0,419.8534851074219
2024-02-29 11:58:34.883981,1569.4139404296875,427.9120788574219,376.3370056152344,118.86447143554688,0.0
2024-02-29 11:58:34.884059,159.56044006347656,50.36629867553711,352.1611633300781,1436.849853515625,142.63735961914062
2024-02-29 11:58:34.888100,0.0,0.0,428.3150329589844,1635.8974609375,873.9560546875
2024-02-29 11:58:34.888199,1382.05126953125,283.26007080078125,410.1831359863281,232.89376831054688,464.5787658691406
2024-02-29 11:58:34.888264,2.0146520137786865,485.1282043457031,360.6227111816406,0.0,0.0
2024-02-29 11:58:34.913442,258.6813049316406,124.1025619506836,365.054931640625,1351.025634765625,248.60806274414062
2024-02-29 11:58:34.913540,0.0,0.0,381.5751037597656,1642.7471923828125,943.6630249023438
2024-02-29 11:58:34.913618,1217.6556396484375,157.54579162597656,382.3809509277344,264.3223571777344,343.69964599609375
2024-02-29 11:58:34.913691,112.82051086425781,491.97802734375,379.5604248046875,0.0,0.0
2024-02-29 11:58:34.915709,564.1025390625,246.59339904785156,384.3955993652344,1075.82421875,174.87179565429688
2024-02-29 11:58:34.915783,0.0,0.0,392.4542236328125,1523.4798583984375,960.1831665039062
2024-02-29 11:58:34.915855,798.2051391601562,78.97435760498047,411.79486083984375,477.8754577636719,666.8497924804688
2024-02-29 11:58:34.915925,97.5091552734375,454.9084167480469,414.6153869628906,0.0,0.0
2024-02-29 11:58:34.915995,1267.216064453125,381.1721496582031,403.3333435058594,728.901123046875,103.95604705810547
2024-02-29 11:58:34.916065,0.0,5.641025543212891,453.69964599609375,79.78022003173828,1373.5897216796875
2024-02-29 11:58:34.916133,139.010986328125,0.0,406.959716796875,1095.164794921875,1142.3077392578125
2024-02-29 11:58:34.916202,1514.21240234375,387.21612548828125,363.8461608886719,0.0,0.0
2024-02-29 11:58:34.957510,1618.5714111328125,489.5604248046875,403.3333435058594,190.1831512451172,49.56044006347656
2024-02-29 11:58:34.957654,221.2087860107422,69.30403137207031,364.24908447265625,1529.5238037109375,209.12088012695312
2024-02-29 11:58:34.957760,0.0,0.0,346.9230651855469,1569.81689453125,142.63735961914062
2024-02-29 11:58:34.957855,1376.4102783203125,288.9010925292969,377.94873046875,152.3076934814453,0.0
2024-02-29 11:58:34.960495,26.996337890625,531.8681030273438,417.032958984375,38.27838897705078,101.53845977783203
2024-02-29 11:58:34.960588,302.19781494140625,166.00732421875,394.8717956542969,1452.1611328125,616.08056640625
2024-02-29 11:58:34.960674,0.0,0.0,363.8461608886719,6.043956279754639,757.5091552734375
2024-02-29 11:58:34.960759,1170.915771484375,147.87545776367188,381.5751037597656,258.27838134765625,93.47985076904297
2024-02-29 11:58:34.960842,141.42857360839844,505.27471923828125,472.6373596191406,0.0,228.86447143554688
2024-02-29 11:58:34.960924,743.003662109375,296.1538391113281,415.4212341308594,1302.6739501953125,721.2454223632812
2024-02-29 11:58:34.961004,0.0,0.0,325.5677795410156,94.28571319580078,267.94873046875
2024-02-29 11:58:34.962383,559.6703491210938,43.516483306884766,374.72528076171875,618.901123046875,50.36629867553711
2024-02-29 11:58:35.007785,62.0512809753418,462.1611633300781,401.72161865234375,0.0,51.57509231567383
2024-02-29 11:58:35.007915,1374.3956298828125,434.3589782714844,379.96337890625,476.26373291015625,11.684981346130371
2024-02-29 11:58:35.008038,43.91941452026367,22.16117286682129,348.937744140625,1627.032958984375,134.1758270263672
2024-02-29 11:58:35.008155,66.88644409179688,0.0,373.9194030761719,1230.952392578125,192.1977996826172
2024-02-29 11:58:35.008270,1454.981689453125,364.6520080566406,398.0952453613281,0.0,34.652015686035156
2024-02-29 11:58:35.008384,1643.150146484375,494.3955993652344,393.26007080078125,133.77288818359375,36.66666793823242
2024-02-29 11:58:35.008840,232.89376831054688,83.4065933227539,372.71063232421875,1468.6812744140625,451.28204345703125
2024-02-29 11:58:35.008953,0.0,0.0,381.1721496582031,1647.5823974609375,822.3809814453125
2024-02-29 11:58:35.010440,1373.186767578125,244.57875061035156,487.5457763671875,282.05126953125,1416.3004150390625
2024-02-29 11:58:35.010552,37.47252655029297,509.30401611328125,495.6044006347656,0.0,1233.77294921875
2024-02-29 11:58:35.010664,348.937744140625,182.93040466308594,388.8278503417969,1285.3480224609375,330.80584716796875
2024-02-29 11:58:35.010770,0.0,0.0,365.4578857421875,7.252747058868408,528.6447143554688
2024-02-29 11:58:35.055147,1072.6007080078125,128.13186645507812,376.3370056152344,337.25274658203125,305.018310546875
2024-02-29 11:58:35.055301,141.025634765625,502.05126953125,370.29302978515625,0.0,0.0
2024-02-29 11:58:35.055458,801.8314819335938,315.4945068359375,356.996337890625,805.4578857421875,24.175825119018555
2024-02-29 11:58:35.055594,0.0,0.0,363.8461608886719,32.63736343383789,473.8461608886719
2024-02-29 11:58:35.056194,375.1282043457031,26.593406677246094,378.75457763671875,728.09521484375,353.77288818359375
2024-02-29 11:58:35.056331,1638.7178955078125,415.018310546875,417.032958984375,0.0,0.0
2024-02-29 11:58:35.057481,1435.238037109375,413.003662109375,410.1831359863281,419.8534851074219,0.0
2024-02-29 11:58:35.057630,66.88644409179688,26.593406677246094,419.047607421875,1612.12451171875,841.3186645507812
2024-02-29 11:58:35.057787,17.326007843017578,0.0,396.8864440917969,1255.128173828125,1124.17578125
2024-02-29 11:58:35.057952,1402.6007080078125,333.6263732910156,384.79852294921875,0.0,51.978023529052734
2024-02-29 11:58:35.058106,6.043956279754639,478.27838134765625,389.6336975097656,49.56044006347656,0.0
2024-02-29 11:58:35.058776,243.36996459960938,91.06227111816406,405.75091552734375,1396.15380859375,766.7765502929688
2024-02-29 11:58:35.103465,0.0,0.0,374.72528076171875,1623.8095703125,595.93408203125
2024-02-29 11:58:35.107056,1342.5640869140625,222.0146484375,356.5934143066406,215.56776428222656,0.0
2024-02-29 11:58:35.107248,46.739925384521484,504.8717956542969,391.24542236328125,0.0,46.336997985839844
2024-02-29 11:58:35.107422,394.4688720703125,194.61538696289062,357.80218505859375,1285.3480224609375,182.93040466308594
2024-02-29 11:58:35.109580,0.0,0.0,354.5787658691406,71.31867980957031,320.3296813964844
2024-02-29 11:58:35.109787,921.5018310546875,95.0915756225586,400.1098937988281,355.78753662109375,221.61172485351562
2024-02-29 11:58:35.109986,129.3406524658203,462.967041015625,419.4505615234375,0.0,26.593406677246094
2024-02-29 11:58:35.110186,922.3076782226562,309.4505615234375,469.010986328125,1249.4871826171875,1127.80224609375
2024-02-29 11:58:35.110377,0.0,0.0,391.6483459472656,119.67032623291016,1265.6043701171875
2024-02-29 11:58:35.110555,272.3809509277344,15.714285850524902,339.6703186035156,689.4139404296875,147.4725341796875
2024-02-29 11:58:35.110743,1581.90478515625,384.79852294921875,402.9303894042969,0.0,0.0
2024-02-29 11:58:35.110917,1340.5494384765625,377.1428527832031,386.4102478027344,328.79119873046875,67.69230651855469
                                                                                          2024-02-29 11:58:35.154263,46.739925384521484,22.16117286682129,365.054931640625,1529.9267578125,400.9157409667969
2024-02-29 11:58:35.154840,17.326007843017578,0.0,363.4432373046875,1328.4615478515625,349.3406677246094
2024-02-29 11:58:35.155240,1371.172119140625,301.79486083984375,384.3955993652344,20.549449920654297,51.17216110229492
2024-02-29 11:58:35.155538,10.073260307312012,474.6520080566406,388.02197265625,0.0,31.0256404876709
2024-02-29 11:58:35.156520,250.62271118164062,104.35897064208984,350.952392578125,1334.908447265625,120.07325744628906
2024-02-29 11:58:35.157045,0.0,0.0,352.1611633300781,1634.6885986328125,475.4578857421875
2024-02-29 11:58:35.157690,1282.5274658203125,172.05128479003906,441.6117248535156,281.6483459472656,654.3589477539062
2024-02-29 11:58:35.158052,78.97435760498047,474.24908447265625,433.1501770019531,0.0,490.76922607421875
2024-02-29 11:58:35.158253,476.6666564941406,217.1794891357422,343.29669189453125,992.0146484375,6.043956279754639
2024-02-29 11:58:35.158421,0.0,0.0,347.72894287109375,1.2087912559509277,239.74359130859375
2024-02-29 11:58:35.158596,788.1318969726562,72.93040466308594,400.5128173828125,482.30767822265625,337.25274658203125
2024-02-29 11:58:35.158972,114.02930450439453,453.69964599609375,392.4542236328125,0.0,31.0256404876709
2024-02-29 11:58:35.200531,1088.3150634765625,348.5347900390625,362.23443603515625,556.0439453125,0.0
2024-02-29 11:58:35.200731,0.0,0.0,360.21978759765625,1623.4066162109375,302.6007385253906
2024-02-29 11:58:35.201102,194.2124481201172,0.0,377.1428527832031,956.5567626953125,550.0
2024-02-29 11:58:35.209790,1541.208740234375,377.94873046875,410.5860900878906,0.0,99.92674255371094
2024-02-29 11:58:35.209906,1570.6226806640625,452.8937683105469,387.6190490722656,146.6666717529297,0.0
2024-02-29 11:58:35.210029,170.43955993652344,55.20146560668945,376.73992919921875,1428.791259765625,519.3773193359375
2024-02-29 11:58:35.210132,0.0,0.0,465.78753662109375,1643.150146484375,1524.2857666015625
2024-02-29 11:58:35.210244,1382.4542236328125,291.72161865234375,458.937744140625,248.60806274414062,1049.230712890625
2024-02-29 11:58:35.210337,4.029304027557373,509.70697021484375,374.3223571777344,0.0,0.0
2024-02-29 11:58:35.210440,255.86080932617188,138.2051239013672,379.1575012207031,1316.776611328125,303.003662109375
2024-02-29 11:58:35.210534,0.0,0.0,391.6483459472656,1639.5238037109375,996.0439453125
2024-02-29 11:58:35.210625,1231.75830078125,176.88644409179688,371.0989074707031,280.03662109375,226.04396057128906
2024-02-29 11:58:35.253068,108.79120635986328,512.930419921875,377.1428527832031,0.0,0.0
2024-02-29 11:58:35.253259,564.908447265625,255.05494689941406,377.94873046875,1031.90478515625,212.34432983398438
2024-02-29 11:58:35.253380,0.0,0.0,352.1611633300781,24.578754425048828,371.9047546386719
2024-02-29 11:58:35.253485,686.996337890625,62.4542121887207,365.054931640625,454.1025695800781,131.35531616210938
2024-02-29 11:58:35.253586,89.45054626464844,451.6849670410156,402.5274658203125,0.0,0.0
2024-02-29 11:58:35.253961,1143.91943359375,352.5641174316406,436.77655029296875,806.6666870117188,424.28570556640625
2024-02-29 11:58:35.254067,0.0,0.0,406.959716796875,100.32967376708984,1337.3260498046875
2024-02-29 11:58:35.255323,141.025634765625,0.0,363.4432373046875,1004.1025390625,820.7692260742188
2024-02-29 11:58:35.255421,1488.827880859375,363.4432373046875,380.76922607421875,0.0,0.0
2024-02-29 11:58:35.255515,1611.7215576171875,450.4761962890625,442.8205261230469,295.3479919433594,396.4835205078125
2024-02-29 11:58:35.255602,203.07691955566406,58.42490768432617,389.6336975097656,1596.4102783203125,853.4066162109375
2024-02-29 11:58:35.255693,0.0,0.0,332.0146484375,1478.754638671875,236.5201416015625
2024-02-29 11:58:35.300820,1382.4542236328125,259.8901062011719,382.3809509277344,141.8314971923828,6.043956279754639
2024-02-29 11:58:35.300941,6.849816799163818,489.1575012207031,386.4102478027344,0.0,51.17216110229492
2024-02-29 11:58:35.301060,286.8864440917969,146.6666717529297,354.1758117675781,1272.05126953125,66.88644409179688
2024-02-29 11:58:35.302072,0.0,0.0,350.1465148925781,1649.5970458984375,239.74359130859375
2024-02-29 11:58:35.302186,1134.2490234375,136.1904754638672,392.8571472167969,278.8278503417969,136.1904754638672
2024-02-29 11:58:35.306178,120.87911987304688,479.4871826171875,431.1355285644531,0.0,28.60805892944336
2024-02-29 11:58:35.306287,652.3442993164062,267.1428527832031,402.1245422363281,1054.4688720703125,182.5274658203125
2024-02-29 11:58:35.306397,0.0,0.0,369.0842590332031,119.67032623291016,700.2930297851562
2024-02-29 11:58:35.306504,498.8278503417969,38.27838897705078,409.3772888183594,673.2966918945312,608.8278198242188
2024-02-29 11:58:35.308288,33.0402946472168,418.24176025390625,510.5128173828125,0.0,963.4066162109375
2024-02-29 11:58:35.308399,1353.040283203125,386.8132019042969,462.1611633300781,865.8974609375,1076.22705078125
2024-02-29 11:58:35.308511,21.355310440063477,14.102563858032227,339.6703186035156,109.5970687866211,268.3516540527344
2024-02-29 11:58:35.350909,54.39560317993164,0.0,359.8168640136719,1157.6190185546875,187.76556396484375
2024-02-29 11:58:35.351075,1431.6116943359375,348.5347900390625,384.3955993652344,0.0,118.05860900878906
2024-02-29 11:58:35.351235,1642.7471923828125,465.78753662109375,367.8754577636719,85.4212417602539,0.0
2024-02-29 11:58:35.351388,226.04396057128906,73.73626708984375,348.5347900390625,1428.791259765625,87.43589782714844
2024-02-29 11:58:35.352161,0.0,0.0,370.69598388671875,1549.6702880859375,497.21612548828125
2024-02-29 11:58:35.352309,1374.798583984375,242.96702575683594,415.4212341308594,186.55677795410156,323.1501770019531
2024-02-29 11:58:35.352461,27.80219841003418,492.3809509277344,403.3333435058594,0.0,0.0
2024-02-29 11:58:35.352605,334.8351745605469,167.2161102294922,352.1611633300781,1309.5238037109375,0.0
2024-02-29 11:58:35.352752,0.0,0.0,425.0915832519531,112.82051086425781,940.8424682617188
2024-02-29 11:58:35.353316,1070.18310546875,123.69963073730469,435.970703125,541.1355590820312,990.8058471679688
2024-02-29 11:58:35.353464,138.60806274414062,487.5457763671875,365.4578857421875,0.0,0.0
2024-02-29 11:58:35.353619,738.1685180664062,308.24176025390625,374.3223571777344,972.2710571289062,101.94139099121094
2024-02-29 11:58:35.379646,0.0,0.0,400.1098937988281,99.92674255371094,883.6264038085938
2024-02-29 11:58:35.379868,402.9303894042969,28.60805892944336,377.1428527832031,740.989013671875,383.99267578125
2024-02-29 11:58:35.380050,1641.5384521484375,433.9560546875,373.1135559082031,0.0,0.0
2024-02-29 11:58:35.380220,1437.2528076171875,429.5238037109375,391.6483459472656,421.8681335449219,119.26740264892578
2024-02-29 11:58:35.380399,68.0952377319336,26.996337890625,365.4578857421875,1616.15380859375,701.5018310546875
2024-02-29 11:58:35.380586,24.981685638427734,0.0,378.75457763671875,1410.6593017578125,731.7216186523438
2024-02-29 11:58:35.380797,1413.076904296875,344.9084167480469,410.989013671875,71.31867980957031,55.20146560668945
2024-02-29 11:58:35.384675,4.835165023803711,480.69598388671875,412.19781494140625,67.28937530517578,18.53479766845703
2024-02-29 11:58:35.384880,240.95237731933594,86.22710418701172,458.937744140625,1461.4285888671875,1349.4139404296875
2024-02-29 11:58:35.385078,0.0,0.0,397.28936767578125,1619.7802734375,1233.77294921875
2024-02-29 11:58:35.385254,1348.205078125,232.4908447265625,351.3553161621094,231.2820587158203,40.29304122924805
2024-02-29 11:58:35.385425,59.63370132446289,510.9157409667969,408.1684875488281,0.0,0.0
2024-02-29 11:58:35.427454,413.003662109375,196.63003540039062,367.0696105957031,1286.5567626953125,94.68864440917969
2024-02-29 11:58:35.427778,0.0,0.0,334.8351745605469,5.641025543212891,141.42857360839844
2024-02-29 11:58:35.428024,956.5567626953125,95.4945068359375,377.1428527832031,368.6813049316406,60.842491149902344
2024-02-29 11:58:35.428254,139.41392517089844,464.1758117675781,417.8388366699219,0.0,41.5018310546875
2024-02-29 11:58:35.428479,935.6043701171875,323.9560546875,386.4102478027344,643.4798583984375,92.67399597167969
2024-02-29 11:58:35.428704,0.0,0.0,367.4725341796875,1621.794921875,574.5787353515625
2024-02-29 11:58:35.429510,1590.3663330078125,391.6483459472656,448.8644714355469,0.0,233.6996307373047
2024-02-29 11:58:35.429715,1501.3187255859375,425.0915832519531,411.3919372558594,175.27471923828125,447.6556701660156
2024-02-29 11:58:35.429915,111.20879364013672,39.89011001586914,330.4029235839844,1478.754638671875,109.5970687866211
2024-02-29 11:58:35.431954,0.0,0.0,373.5164794921875,1414.6885986328125,180.5128173828125
2024-02-29 11:58:35.432253,1385.6776123046875,308.6446838378906,431.5384521484375,53.589744567871094,200.25640869140625
2024-02-29 11:58:35.475585,4.835165023803711,480.69598388671875,387.21612548828125,0.0,0.0
2024-02-29 11:58:35.475997,251.8314971923828,107.17948913574219,337.25274658203125,1331.2821044921875,35.4578742980957
2024-02-29 11:58:35.476319,0.0,0.0,361.025634765625,1.6117216348648071,246.59339904785156
2024-02-29 11:58:35.476633,1280.5128173828125,172.85714721679688,385.6044006347656,238.93772888183594,197.43589782714844
2024-02-29 11:58:35.476958,74.13919067382812,473.040283203125,384.3955993652344,0.0,0.0
2024-02-29 11:58:35.477828,463.77288818359375,206.7032928466797,376.73992919921875,1215.6409912109375,115.23809814453125
2024-02-29 11:58:35.478088,0.0,0.0,379.96337890625,135.38461303710938,791.7582397460938
2024-02-29 11:58:35.478324,801.025634765625,64.87179565429688,473.040283203125,825.2014770507812,1525.8974609375
2024-02-29 11:58:35.478557,114.43223571777344,435.5677795410156,448.8644714355469,0.0,781.6849975585938
2024-02-29 11:58:35.482002,1056.08056640625,336.8498229980469,351.75823974609375,489.1575012207031,0.0
2024-02-29 11:58:35.483141,0.0,0.0,376.73992919921875,1641.5384521484375,466.19049072265625
2024-02-29 11:58:35.483401,197.8388214111328,2.4175825119018555,402.9303894042969,977.5091552734375,879.5970458984375
2024-02-29 11:58:35.528861,1540.805908203125,385.6044006347656,375.5311279296875,0.0,107.5824203491211
2024-02-29 11:58:35.529234,1560.952392578125,448.05859375,369.0842590332031,134.1758270263672,0.0
2024-02-29 11:58:35.529544,158.75457763671875,49.157508850097656,378.75457763671875,1455.3846435546875,446.4468994140625
2024-02-29 11:58:35.529857,0.0,0.0,365.4578857421875,1491.6483154296875,459.3406677246094
2024-02-29 11:58:35.530201,1382.05126953125,296.959716796875,380.76922607421875,79.78022003173828,29.010988235473633
2024-02-29 11:58:35.530509,3.626373529434204,487.5457763671875,402.9303894042969,10.073260307312012,0.0
2024-02-29 11:58:35.530815,256.6666564941406,122.8937759399414,413.003662109375,1398.5714111328125,703.113525390625
2024-02-29 11:58:35.531082,0.0,0.0,404.1391906738281,1642.3443603515625,1276.4835205078125
2024-02-29 11:58:35.531312,1229.7435302734375,164.7985382080078,392.8571472167969,263.9194030761719,255.45787048339844
2024-02-29 11:58:35.531543,107.9853515625,495.6044006347656,386.4102478027344,0.0,0.0
2024-02-29 11:58:35.531778,556.4468994140625,244.981689453125,420.6593322753906,1189.4505615234375,576.5933837890625
2024-02-29 11:58:35.531995,0.0,0.0,379.1575012207031,63.260074615478516,579.010986328125
2024-02-29 11:58:35.576604,697.4725341796875,63.260074615478516,349.3406677246094,457.72894287109375,18.937728881835938
2024-02-29 11:58:35.576911,94.68864440917969,454.5054931640625,390.03662109375,0.0,22.96703338623047
2024-02-29 11:58:35.577215,1241.4285888671875,379.5604248046875,375.1282043457031,656.3735961914062,102.34432220458984
2024-02-29 11:58:35.577525,0.0,2.0146520137786865,347.3260192871094,3.2234432697296143,175.6776580810547
2024-02-29 11:58:35.577842,135.38461303710938,0.0,360.21978759765625,981.5384521484375,98.71794891357422
2024-02-29 11:58:35.578136,1504.13916015625,362.6373596191406,423.0769348144531,0.0,65.27472686767578
2024-02-29 11:58:35.578455,1615.3480224609375,442.0146484375,466.996337890625,337.25274658203125,725.2747192382812
2024-02-29 11:58:35.578770,213.95603942871094,55.60439682006836,396.8864440917969,1605.6776123046875,964.6153564453125
2024-02-29 11:58:35.579030,0.0,0.0,348.937744140625,1491.245361328125,478.6813049316406
2024-02-29 11:58:35.579248,1380.842529296875,271.1721496582031,420.25640869140625,146.26373291015625,142.23443603515625
2024-02-29 11:58:35.579475,13.296703338623047,486.73992919921875,476.26373291015625,0.0,522.1978149414062
2024-02-29 11:58:35.583794,287.69232177734375,144.24908447265625,397.28936767578125,1327.6556396484375,459.3406677246094
2024-02-29 11:58:35.627199,0.0,0.0,351.3553161621094,1627.8388671875,223.22344970703125
2024-02-29 11:58:35.627503,1158.4249267578125,136.996337890625,403.73626708984375,306.22711181640625,111.20879364013672
2024-02-29 11:58:35.629040,127.32600402832031,485.5311279296875,404.945068359375,0.0,53.589744567871094
2024-02-29 11:58:35.629331,668.4615478515625,279.23077392578125,359.4139099121094,743.8095092773438,5.238095283508301
2024-02-29 11:58:35.629622,0.0,0.0,344.1025695800781,1634.6885986328125,177.6923065185547
2024-02-29 11:58:35.629912,538.7179565429688,38.27838897705078,408.1684875488281,658.3883056640625,523.4066162109375
2024-02-29 11:58:35.630201,49.157508850097656,435.5677795410156,428.3150329589844,0.0,253.84616088867188
2024-02-29 11:58:35.630499,1345.3846435546875,404.5421142578125,364.6520080566406,206.7032928466797,0.0
2024-02-29 11:58:35.630812,19.340660095214844,16.117216110229492,349.3406677246094,1459.81689453125,201.06227111816406
2024-02-29 11:58:35.631100,69.70696258544922,0.0,431.94140625,1442.087890625,801.8314819335938
2024-02-29 11:58:35.631394,1453.3699951171875,352.1611633300781,415.018310546875,69.30403137207031,389.23077392578125
2024-02-29 11:58:35.631704,1635.091552734375,471.4285583496094,361.4285583496094,0.0,0.0
2024-02-29 11:58:35.674343,229.26739501953125,75.34798431396484,356.5934143066406,1380.842529296875,219.1941375732422
2024-02-29 11:58:35.674716,46.336997985839844,0.0,375.9340515136719,1489.230712890625,697.87548828125
2024-02-29 11:58:35.675048,1404.21240234375,257.4725341796875,410.1831359863281,171.24542236328125,302.19781494140625
2024-02-29 11:58:35.675325,15.311355590820312,505.27471923828125,378.75457763671875,0.0,0.0
2024-02-29 11:58:35.675546,338.4615478515625,173.6630096435547,379.1575012207031,1136.6666259765625,267.1428527832031
2024-02-29 11:58:35.675782,0.0,0.0,450.0732727050781,4.835165023803711,1365.93408203125
2024-02-29 11:58:35.676025,1083.076904296875,119.67032623291016,429.1208801269531,344.1025695800781,892.087890625
2024-02-29 11:58:35.676250,139.41392517089844,476.6666564941406,396.0805969238281,0.0,0.0
2024-02-29 11:58:35.676484,780.0732421875,297.3626403808594,405.3479919433594,783.2966918945312,167.61904907226562
2024-02-29 11:58:35.676744,0.0,0.0,433.5531005859375,1635.091552734375,1299.4505615234375
2024-02-29 11:58:35.676965,402.5274658203125,28.205127716064453,386.8132019042969,651.94140625,681.3552856445312
2024-02-29 11:58:35.677193,0.4029304087162018,413.4065856933594,360.6227111816406,0.0,0.0
2024-02-29 11:58:35.720009,1415.8974609375,404.1391906738281,379.1575012207031,225.23809814453125,122.0879135131836
2024-02-29 11:58:35.725078,57.619049072265625,23.369962692260742,349.3406677246094,1504.13916015625,258.6813049316406
2024-02-29 11:58:35.725380,21.758241653442383,0.0,353.3699645996094,1239.4139404296875,132.96702575683594
2024-02-29 11:58:35.725622,1404.6153564453125,327.1794738769531,381.5751037597656,0.0,0.0
2024-02-29 11:58:35.725845,3.626373529434204,459.3406677246094,408.1684875488281,135.38461303710938,58.82783889770508
2024-02-29 11:58:35.726093,240.54945373535156,82.19779968261719,381.1721496582031,1462.234375,499.6336975097656
2024-02-29 11:58:35.726329,0.0,0.0,376.73992919921875,1629.4505615234375,830.8424682617188
2024-02-29 11:58:35.726565,1344.5787353515625,219.1941375732422,415.4212341308594,217.9853515625,149.08424377441406
2024-02-29 11:58:35.726834,45.93406677246094,479.8901062011719,468.20513916015625,0.0,217.9853515625
2024-02-29 11:58:35.727084,383.1867980957031,173.6630096435547,467.3992614746094,1392.12451171875,1384.4688720703125
                                                                                                                      2024-02-29 11:58:35.727305,0.0,0.0,359.8168640136719,0.4029304087162018,728.4981689453125
2024-02-29 11:58:35.752329,140.21978759765625,472.23443603515625,406.959716796875,0.0,54.79853439331055
2024-02-29 11:58:35.752633,941.6483764648438,331.20880126953125,370.29302978515625,719.6337280273438,39.08424758911133
2024-02-29 11:58:35.752934,0.0,0.0,338.4615478515625,37.06959533691406,194.61538696289062
2024-02-29 11:58:35.753223,311.8681335449219,15.714285850524902,378.3516540527344,904.981689453125,131.35531616210938
2024-02-29 11:58:35.753598,1609.7069091796875,415.4212341308594,398.4981689453125,0.0,0.0
2024-02-29 11:58:35.753903,1510.989013671875,440.4029235839844,400.5128173828125,319.5238037109375,31.428571701049805
2024-02-29 11:58:35.754165,126.52014923095703,37.47252655029297,386.4102478027344,1573.040283203125,558.05859375
2024-02-29 11:58:35.754400,0.0,0.0,388.4248962402344,1523.8828125,819.1575317382812
2024-02-29 11:58:35.754630,1399.7802734375,325.5677795410156,489.96337890625,134.57875061035156,1171.3187255859375
2024-02-29 11:58:35.754856,6.043956279754639,504.8717956542969,487.94873046875,65.67765808105469,1220.879150390625
2024-02-29 11:58:35.755161,242.56410217285156,118.86447143554688,358.20513916015625,1471.098876953125,257.4725341796875
2024-02-29 11:58:35.755397,0.0,0.0,340.4761962890625,1633.4798583984375,194.2124481201172
2024-02-29 11:58:35.799812,1316.3736572265625,211.94139099121094,379.5604248046875,277.6190490722656,193.003662109375
2024-02-29 11:58:35.800153,89.45054626464844,529.4505615234375,377.94873046875,0.0,0.0
2024-02-29 11:58:35.800446,491.97802734375,239.3406524658203,356.5934143066406,1175.7509765625,38.68132019042969
2024-02-29 11:58:35.805069,0.0,0.0,367.8754577636719,53.589744567871094,446.8498229980469
2024-02-29 11:58:35.805295,858.6447143554688,89.85347747802734,384.3955993652344,437.9853515625,267.1428527832031
2024-02-29 11:58:35.805513,131.35531616210938,472.23443603515625,404.1391906738281,0.0,0.0
2024-02-29 11:58:35.805727,1098.3883056640625,356.5934143066406,396.4835205078125,828.02197265625,0.8058608174324036
2024-02-29 11:58:35.805966,0.0,0.0,419.047607421875,88.64469146728516,884.8351440429688
2024-02-29 11:58:35.806176,218.7912139892578,4.029304027557373,407.76556396484375,981.94140625,1095.164794921875
2024-02-29 11:58:35.806395,1562.967041015625,392.4542236328125,371.0989074707031,0.0,11.282051086425781
2024-02-29 11:58:35.806608,1562.967041015625,446.0439453125,396.0805969238281,266.73992919921875,0.0
2024-02-29 11:58:35.806831,171.24542236328125,48.75457763671875,424.28570556640625,1551.2821044921875,881.6116943359375
2024-02-29 11:58:35.849310,0.0,0.0,388.8278503417969,1471.098876953125,604.3956298828125
2024-02-29 11:58:35.849653,1382.4542236328125,296.959716796875,371.9047546386719,91.86813354492188,0.0
2024-02-29 11:58:35.849948,2.8205127716064453,495.6044006347656,386.4102478027344,12.087912559509277,63.663002014160156
2024-02-29 11:58:35.850240,258.27838134765625,126.52014923095703,353.3699645996094,1399.7802734375,322.3443298339844
2024-02-29 11:58:35.851788,0.0,0.0,349.74359130859375,2.8205127716064453,359.010986328125
2024-02-29 11:58:35.852095,1225.3114013671875,159.96336364746094,398.0952453613281,238.93772888183594,70.10989379882812
2024-02-29 11:58:35.852414,100.73259735107422,486.3370056152344,421.8681335449219,0.0,0.0
2024-02-29 11:58:35.852716,544.7619018554688,234.90843200683594,464.981689453125,1334.908447265625,1200.3297119140625
2024-02-29 11:58:35.853026,0.0,0.0,406.5567626953125,36.263736724853516,1359.084228515625
2024-02-29 11:58:35.853328,671.2820434570312,64.06593322753906,347.72894287109375,450.8791198730469,141.8314971923828
2024-02-29 11:58:35.853635,87.03296661376953,446.8498229980469,413.4065856933594,0.0,0.0
2024-02-29 11:58:35.853962,1217.2528076171875,368.6813049316406,383.5897521972656,417.4358825683594,46.739925384521484
2024-02-29 11:58:35.896180,0.0,0.4029304087162018,338.05859375,1510.18310546875,176.4835205078125
2024-02-29 11:58:35.896511,132.1611785888672,0.0,381.97802734375,1126.1904296875,303.003662109375
2024-02-29 11:58:35.896825,1500.10986328125,356.19049072265625,427.9120788574219,0.0,129.74359130859375
2024-02-29 11:58:35.897160,1606.08056640625,446.0439453125,388.4248962402344,82.6007308959961,9.267398834228516
2024-02-29 11:58:35.897460,207.10623168945312,60.842491149902344,345.71429443359375,1419.5238037109375,139.010986328125
2024-02-29 11:58:35.902364,48.35165023803711,0.0,380.76922607421875,1504.5421142578125,426.70330810546875
2024-02-29 11:58:35.902688,1409.4505615234375,270.3663024902344,449.6703186035156,178.09524536132812,516.5567626953125
2024-02-29 11:58:35.902947,1647.179443359375,487.5457763671875,434.3589782714844,0.0,464.1758117675781
2024-02-29 11:58:35.903175,294.1391906738281,149.08424377441406,343.29669189453125,1216.0439453125,48.35165023803711
2024-02-29 11:58:35.903400,0.0,0.0,347.72894287109375,1631.062255859375,136.59339904785156
2024-02-29 11:58:35.903632,1146.3370361328125,136.59339904785156,417.8388366699219,315.8974304199219,209.5238037109375
2024-02-29 11:58:35.903848,122.4908447265625,487.5457763671875,399.70697021484375,0.0,19.743589401245117
2024-02-29 11:58:35.945912,654.3589477539062,272.78387451171875,353.3699645996094,713.99267578125,0.0
2024-02-29 11:58:35.946112,0.0,0.0,358.20513916015625,1646.776611328125,294.945068359375
2024-02-29 11:58:35.946295,519.3773193359375,36.263736724853516,382.78387451171875,718.8278198242188,398.0952453613281
2024-02-29 11:58:35.947376,41.5018310546875,419.4505615234375,396.8864440917969,0.0,27.80219841003418
2024-02-29 11:58:35.947554,1318.3883056640625,378.75457763671875,391.24542236328125,385.6044006347656,7.252747058868408
2024-02-29 11:58:35.947714,5.238095283508301,9.670330047607422,385.6044006347656,1572.234375,602.3809814453125
2024-02-29 11:58:35.947874,66.48351287841797,0.0,458.1318664550781,1485.201416015625,1524.2857666015625
2024-02-29 11:58:35.951147,1436.849853515625,333.6263732910156,444.8351745605469,145.05494689941406,933.1868286132812
2024-02-29 11:58:35.951297,1639.9267578125,450.0732727050781,362.6373596191406,0.0,0.0
2024-02-29 11:58:35.951447,224.43223571777344,70.9157485961914,367.0696105957031,1393.7362060546875,364.6520080566406
2024-02-29 11:58:35.951600,0.0,0.0,399.30401611328125,1582.3077392578125,1004.5054931640625
2024-02-29 11:58:35.951809,1378.4249267578125,239.74359130859375,377.1428527832031,194.2124481201172,205.89743041992188
2024-02-29 11:58:35.992710,20.549449920654297,489.5604248046875,369.4871826171875,0.0,0.0
2024-02-29 11:58:35.993330,323.5531005859375,163.58973693847656,386.8132019042969,1221.6849365234375,353.77288818359375
2024-02-29 11:58:35.994374,0.0,0.0,360.6227111816406,0.0,472.23443603515625
2024-02-29 11:58:35.994741,1062.5274658203125,119.26740264892578,361.4285583496094,305.8241882324219,88.24176025390625
2024-02-29 11:58:35.995148,136.1904754638672,473.4432373046875,386.8132019042969,0.0,0.0
2024-02-29 11:58:35.995504,775.6410522460938,283.6629943847656,405.75091552734375,932.7838745117188,312.27105712890625
2024-02-29 11:58:35.995823,0.0,0.0,395.6776428222656,104.35897064208984,996.0439453125
2024-02-29 11:58:36.000387,405.3479919433594,28.60805892944336,392.8571472167969,804.2490844726562,684.5787353515625
2024-02-29 11:58:36.000730,0.0,410.5860900878906,419.8534851074219,0.0,0.0
2024-02-29 11:58:36.001072,1424.3590087890625,402.1245422363281,461.3553161621094,589.4871826171875,473.8461608886719
2024-02-29 11:58:36.001442,61.24542236328125,20.549449920654297,431.1355285644531,66.0805892944336,1311.94140625
2024-02-29 11:58:36.001781,27.80219841003418,0.0,362.23443603515625,1265.6043701171875,440.80584716796875
2024-02-29 11:58:36.048921,1413.4798583984375,342.8937683105469,377.94873046875,18.53479766845703,0.0
2024-02-29 11:58:36.049190,4.835165023803711,483.1135559082031,389.6336975097656,31.428571701049805,86.22710418701172
2024-02-29 11:58:36.050494,241.75823974609375,91.46520233154297,354.1758117675781,1390.10986328125,95.8974380493164
05469,456.1172180175781,0.0,297.3626403808594
2024-02-29 11:58:32.711393,1645. 70703125,469.41390991210942024-02-29 11:58:36.050704,0.0,0.0,346.1172180175781,1633.4798583984375,149.89010620117188
2024-02-29 11:58:36.051185,54.79853439331055,502.05126953125,424.28570556640625,0.0,79.37728881835938
2024-02-29 11:58:36.051365,397.69232177734375,191.7948760986328,382.3809509277344,1263.186767578125,250.21978759765625
2024-02-29 11:58:36.051548,0.0,0.0,369.0842590332031,74.54212188720703,684.1758422851562
2024-02-29 11:58:36.051726,974.2857055664062,100.73259735107422,414.6153869628906,378.3516540527344,353.77288818359375
2024-02-29 11:58:36.051910,144.24908447265625,453.29669189453125,498.4248962402344,0.0,747.4359130859375
2024-02-29 11:58:36.052087,968.2417602539062,309.4505615234375,409.3772888183594,1169.7069091796875,973.076904296875
2024-02-29 11:58:36.052288,0.0,0.0,321.94140625,128.93772888183594,207.5091552734375
2024-02-29 11:58:36.096268,291.3186950683594,12.087912559509277,386.00732421875,852.6007080078125,107.9853515625
2024-02-29 11:58:36.096529,1606.08056640625,399.70697021484375,401.72161865234375,0.0,75.34798431396484
2024-02-29 11:58:36.096707,1502.930419921875,432.3443298339844,366.6666564941406,162.7838897705078,0.0
2024-02-29 11:58:36.096879,117.65567779541016,38.27838897705078,344.9084167480469,1453.77294921875,96.70330047607422
2024-02-29 11:58:36.097047,0.0,0.0,384.3955993652344,1605.2747802734375,495.20147705078125
2024-02-29 11:58:36.098187,1392.12451171875,315.0915832519531,427.5091552734375,175.27471923828125,267.5457763671875
2024-02-29 11:58:36.098373,5.641025543212891,491.97802734375,403.73626708984375,28.205127716064453,0.0
2024-02-29 11:58:36.098723,245.7875518798828,111.61172485351562,356.19049072265625,1429.194091796875,40.29304122924805
2024-02-29 11:58:36.099059,0.0,0.0,416.6300354003906,31.428571701049805,891.6849975585938
2024-02-29 11:58:36.100983,1301.062255859375,195.018310546875,422.6739807128906,361.8315124511719,924.3223266601562
2024-02-29 11:58:36.101164,87.83882904052734,510.9157409667969,362.6373596191406,0.0,0.0
2024-02-29 11:58:36.101370,483.9194030761719,227.25274658203125,360.21978759765625,1112.893798828125,76.55677795410156
2024-02-29 11:58:36.146114,0.0,0.0,385.20147705078125,72.52747344970703,786.1171875
2024-02-29 11:58:36.146415,859.4505615234375,87.03296661376953,390.03662109375,521.7948608398438,433.5531005859375
2024-02-29 11:58:36.146745,131.75823974609375,478.6813049316406,371.5018310546875,0.0,0.0
2024-02-29 11:58:36.147930,1109.2674560546875,368.27838134765625,374.3223571777344,697.87548828125,117.25274658203125
2024-02-29 11:58:36.148133,0.0,0.0,405.3479919433594,51.17216110229492,1033.5164794921875
2024-02-29 11:58:36.148387,214.76190185546875,2.0146520137786865,397.69232177734375,995.6410522460938,785.7142944335938
2024-02-29 11:58:36.149935,1559.7435302734375,390.8424987792969,403.73626708984375,0.0,0.0
2024-02-29 11:58:36.150188,1570.2197265625,452.4908447265625,425.8974304199219,314.28570556640625,62.4542121887207
2024-02-29 11:58:36.150366,178.09524536132812,50.769229888916016,456.1172180175781,1585.128173828125,1347.3992919921875
2024-02-29 11:58:36.150548,0.0,0.0,399.30401611328125,1499.7069091796875,1227.7288818359375
2024-02-29 11:58:36.150716,1385.2747802734375,305.4212341308594,362.6373596191406,124.5054931640625,33.0402946472168
2024-02-29 11:58:36.150866,4.432234287261963,506.0805969238281,398.0952453613281,22.96703338623047,3.626373529434204
2024-02-29 11:58:36.170712,253.04029846191406,131.75823974609375,357.80218505859375,1430.4029541015625,110.80586242675781
2024-02-29 11:58:36.171018,0.0,0.0,342.8937683105469,1637.5091552734375,114.02930450439453
2024-02-29 11:58:36.171225,1243.4432373046875,172.45420837402344,375.1282043457031,258.27838134765625,34.24908447265625
2024-02-29 11:58:36.171399,114.83516693115234,504.0659484863281,412.19781494140625,0.0,37.47252655029297
2024-02-29 11:58:36.171973,575.3846435546875,254.24908447265625,381.97802734375,1151.5750732421875,105.56776428222656
2024-02-29 11:58:36.172188,0.0,0.0,367.4725341796875,66.48351287841797,601.5750732421875
2024-02-29 11:58:36.172343,761.1355590820312,68.4981689453125,395.6776428222656,573.3699340820312,386.4102478027344
2024-02-29 11:58:36.172494,110.0,456.1172180175781,454.1025695800781,0.0,205.09156799316406
2024-02-29 11:58:36.172638,1255.128173828125,370.29302978515625,453.69964599609375,1049.6336669921875,937.6190185546875
2024-02-29 11:58:36.173042,0.0,0.8058608174324036,346.9230651855469,154.3223419189453,421.4652099609375
2024-02-29 11:58:36.173194,159.1575164794922,0.0,350.952392578125,981.1355590820312,10.879120826721191
2024-02-29 11:58:36.178202,1529.9267578125,390.8424987792969,420.25640869140625,0.0,79.37728881835938
2024-02-29 11:58:36.225818,1616.5567626953125,498.02197265625,392.8571472167969,136.1904754638672,4.432234287261963
2024-02-29 11:58:36.226139,224.8351593017578,72.12454223632812,342.8937683105469,1463.84619140625,72.12454223632812
2024-02-29 11:58:36.226385,0.0,0.0,356.996337890625,1574.6519775390625,197.03297424316406
2024-02-29 11:58:36.226690,1373.5897216796875,298.5714416503906,390.8424987792969,163.1868133544922,111.61172485351562
2024-02-29 11:58:36.226967,35.05494689941406,549.1941528320312,390.03662109375,0.0,0.0
2024-02-29 11:58:36.227213,300.5860900878906,173.6630096435547,388.4248962402344,1333.2967529296875,272.3809509277344
2024-02-29 11:58:36.227447,0.0,0.0,402.1245422363281,82.19779968261719,820.7692260742188
2024-02-29 11:58:36.227701,1205.164794921875,159.1575164794922,476.26373291015625,481.5018310546875,1412.2711181640625
2024-02-29 11:58:36.227952,159.96336364746094,549.1941528320312,452.4908447265625,0.0,712.7838745117188
2024-02-29 11:58:36.228209,806.2637329101562,344.1025695800781,355.78753662109375,977.5091552734375,0.0
2024-02-29 11:58:36.228451,0.0,0.0,383.1867980957031,99.12088012695312,465.78753662109375
2024-02-29 11:58:36.228670,737.7655639648438,61.64834976196289,406.5567626953125,821.1721801757812,825.6043701171875
2024-02-29 11:58:36.274156,114.02930450439453,521.7948608398438,375.9340515136719,0.0,78.57142639160156
2024-02-29 11:58:36.274481,1420.7325439453125,487.94873046875,368.27838134765625,354.1758117675781,0.0
2024-02-29 11:58:36.274791,92.27106475830078,30.21977996826172,378.75457763671875,1580.2930908203125,388.8278503417969
2024-02-29 11:58:36.275095,127.32600402832031,0.0,374.3223571777344,1150.769287109375,329.5970764160156
2024-02-29 11:58:36.275411,1538.791259765625,416.22711181640625,379.1575012207031,0.0,0.0
2024-02-29 11:58:36.275716,1630.2564697265625,566.1171875,397.28936767578125,151.90475463867188,0.0
2024-02-29 11:58:36.276027,243.77288818359375,104.76190185546875,409.3772888183594,1477.142822265625,753.8828125
2024-02-29 11:58:36.276323,0.0,0.0,413.003662109375,1582.3077392578125,1201.5384521484375
2024-02-29 11:58:36.276629,1361.5018310546875,313.0769348144531,389.23077392578125,188.974365234375,126.52014923095703
2024-02-29 11:58:36.276924,70.9157485961914,595.1282348632812,408.1684875488281,0.0,0.0
2024-02-29 11:58:36.277222,388.4248962402344,215.56776428222656,429.9267272949219,1328.4615478515625,644.2857055664062
2024-02-29 11:58:36.277538,0.0,0.0,370.69598388671875,12.087912559509277,605.2014770507812
2024-02-29 11:58:36.321998,1131.4285888671875,142.23443603515625,359.010986328125,278.02197265625,0.0
2024-02-29 11:58:36.328954,156.73992919921875,535.8974609375,398.4981689453125,0.0,31.428571701049805
2024-02-29 11:58:36.329153,894.5054931640625,344.5054931640625,381.97802734375,1163.2601318359375,289.30401611328125
2024-02-29 11:58:36.329323,0.0,0.0,352.5641174316406,128.53480529785156,288.9010925292969
2024-02-29 11:58:36.329486,448.8644714355469,31.831501007080078,363.4432373046875,616.4835205078125,37.875457763671875
2024-02-29 11:58:36.329648,29.41391944885254,449.26739501953125,421.4652099609375,0.0,18.131868362426758
2024-02-29 11:58:36.329807,1447.7288818359375,435.1648254394531,469.010986328125,872.7472534179688,838.09521484375
2024-02-29 11:58:36.329965,92.27106475830078,26.996337890625,401.72161865234375,129.74359130859375,1094.3590087890625
,139.41392517089844,476.6666564941406,396.0805969238281,0.0,0.0
2024-02-29 11:58:35.676484,780.0732421875,297.3626403802024-02-29 11:58:36.330121,21.758241653442383,0.0,352.1611633300781,1163.2601318359375,422.6739807128906
2024-02-29 11:58:36.330640,242.1611785888672,93.88278198242188,368.27838134765625,1419.5238037109375,305.4212341308594
2024-02-29 11:58:36.374401,0.0,0.0,356.5934143066406,1631.8681640625,379.5604248046875
2024-02-29 11:58:36.374692,1344.981689453125,224.029296875,413.80950927734375,250.21978759765625,247.8022003173828
2024-02-29 11:58:36.374903,61.24542236328125,513.7362670898438,390.03662109375,0.0,0.0
2024-02-29 11:58:36.375201,408.974365234375,201.06227111816406,345.31134033203125,1212.0146484375,46.336997985839844
2024-02-29 11:58:36.375392,0.0,0.0,352.1611633300781,58.42490768432617,243.36996459960938
2024-02-29 11:58:36.375574,989.5970458984375,125.71428680419922,422.6739807128906,447.25274658203125,434.76190185546875
2024-02-29 11:58:36.375744,151.5018310546875,489.1575012207031,433.1501770019531,0.0,203.4798583984375
2024-02-29 11:58:36.375917,947.2893676757812,338.05859375,363.8461608886719,786.5201416015625,0.0
2024-02-29 11:58:36.376091,0.0,0.0,348.1318664550781,65.27472686767578,189.37728881835938
2024-02-29 11:58:36.376337,278.4248962402344,9.267398834228516,437.9853515625,1195.091552734375,742.6007080078125
2024-02-29 11:58:36.376497,1593.186767578125,417.032958984375,416.6300354003906,0.0,353.3699645996094
2024-02-29 11:58:36.376665,1514.21240234375,458.5347900390625,358.6080627441406,230.4761962890625,0.0
2024-02-29 11:58:36.421535,124.5054931640625,42.30769348144531,355.3846130371094,1578.6812744140625,248.60806274414062
2024-02-29 11:58:36.422244,0.0,0.0,359.8168640136719,1433.6263427734375,562.087890625
2024-02-29 11:58:36.422598,1392.12451171875,330.4029235839844,393.6629943847656,65.67765808105469,170.03663635253906
2024-02-29 11:58:36.425974,6.849816799163818,510.1098937988281,404.5421142578125,56.00732421875,0.0
2024-02-29 11:58:36.426281,243.36996459960938,118.05860900878906,382.3809509277344,1438.864501953125,232.89376831054688
2024-02-29 11:58:36.426641,0.0,0.0,441.6117248535156,1645.970703125,1293.8095703125
2024-02-29 11:58:36.426875,1304.6885986328125,205.89743041992188,430.73260498046875,250.21978759765625,671.2820434570312
2024-02-29 11:58:36.427075,100.32967376708984,521.7948608398438,403.3333435058594,0.0,0.0
2024-02-29 11:58:36.427288,505.27471923828125,236.5201416015625,404.1391906738281,1299.047607421875,249.010986328125
2024-02-29 11:58:36.427453,0.0,0.0,442.4175720214844,65.67765808105469,1312.3443603515625
2024-02-29 11:58:36.427602,894.1025390625,93.88278198242188,400.9157409667969,433.1501770019531,647.106201171875
2024-02-29 11:58:36.427748,144.24908447265625,503.6629943847656,371.9047546386719,0.0,0.0
2024-02-29 11:58:36.469164,1174.5421142578125,397.69232177734375,381.5751037597656,902.967041015625,148.27838134765625
2024-02-29 11:58:36.469407,0.0,0.0,345.71429443359375,102.74725341796875,298.974365234375
2024-02-29 11:58:36.469648,251.025634765625,4.432234287261963,358.20513916015625,933.99267578125,122.8937759399414
2024-02-29 11:58:36.469817,1592.3809814453125,437.5824279785156,383.1867980957031,0.0,0.0
2024-02-29 11:58:36.469991,1588.3516845703125,506.4835205078125,390.03662109375,343.29669189453125,77.76556396484375
2024-02-29 11:58:36.470140,215.970703125,61.24542236328125,379.5604248046875,1595.201416015625,602.3809814453125
2024-02-29 11:58:36.470674,66.0805892944336,0.0,392.8571472167969,1403.8095703125,660.8058471679688
2024-02-29 11:58:36.470824,1423.9560546875,360.6227111816406,415.8241882324219,100.73259735107422,0.0
2024-02-29 11:58:36.470969,20.549449920654297,593.91943359375,466.19049072265625,122.4908447265625,219.59707641601562
2024-02-29 11:58:36.471111,282.8571472167969,174.4688720703125,467.80218505859375,1507.765625,1390.10986328125
2024-02-29 11:58:36.471254,0.0,0.0,363.040283203125,1632.6739501953125,746.6300659179688
2024-02-29 11:58:36.471391,1301.8681640625,243.36996459960938,370.69598388671875,268.75457763671875,0.0
2024-02-29 11:58:36.518065,148.27838134765625,621.3186645507812,419.8534851074219,0.0,64.87179565429688
2024-02-29 11:58:36.518278,725.6776733398438,346.5201416015625,365.8608093261719,1227.3260498046875,34.24908447265625
2024-02-29 11:58:36.519019,0.0,0.0,341.28204345703125,79.37728881835938,121.68498229980469
2024-02-29 11:58:36.519127,852.1978149414062,82.6007308959961,382.78387451171875,511.3186950683594,87.83882904052734
2024-02-29 11:58:36.520178,155.93406677246094,525.8241577148438,421.062255859375,0.0,0.0
2024-02-29 11:58:36.525769,1207.179443359375,406.1538391113281,414.6153869628906,712.7838745117188,57.21611785888672
2024-02-29 11:58:36.527045,0.0,0.0,381.5751037597656,54.79853439331055,530.6593627929688
2024-02-29 11:58:36.527117,378.3516540527344,54.79853439331055,408.1684875488281,859.4505615234375,715.2014770507812
2024-02-29 11:58:36.527192,1616.959716796875,393.6629943847656,502.8571472167969,0.0,1019.8168334960938
2024-02-29 11:58:36.527262,1564.981689453125,442.8205261230469,483.1135559082031,286.8864440917969,1305.4945068359375
2024-02-29 11:58:36.527333,226.84982299804688,66.0805892944336,357.80218505859375,1570.2197265625,602.7838745117188
2024-02-29 11:58:36.528452,0.0,0.0,344.9084167480469,1413.076904296875,207.5091552734375
2024-02-29 11:58:36.551528,1386.4835205078125,259.0842590332031,379.5604248046875,145.45787048339844,123.69963073730469
2024-02-29 11:58:36.551738,1645.5677490234375,481.5018310546875,370.69598388671875,0.0,0.0
2024-02-29 11:58:36.551950,281.24542236328125,136.996337890625,350.5494384765625,916.6666870117188,47.5457878112793
2024-02-29 11:58:36.552063,0.0,0.0,351.3553161621094,1566.5933837890625,420.6593322753906
2024-02-29 11:58:36.553828,1105.6409912109375,121.68498229980469,375.5311279296875,350.5494384765625,230.07325744628906
2024-02-29 11:58:36.553926,100.73259735107422,438.79119873046875,409.3772888183594,0.0,0.0
2024-02-29 11:58:36.553993,587.4725341796875,232.08790588378906,392.8571472167969,482.30767822265625,9.267398834228516
2024-02-29 11:58:36.554056,0.0,0.0,420.25640869140625,1530.3297119140625,951.3186645507812
