TimeStamp,RAW_TP9,RAW_AF7,RAW_AF8,RAW_TP10,AUX1,Marker
2024-02-20 21:54:02.147294,799.4139404296875,1158.4249267578125,468.20513916015625,1316.3736572265625,172.45420837402344
2024-02-20 21:54:02.147427,0.0,0.0,401.72161865234375,41.904762268066406,1471.098876953125
2024-02-20 21:54:02.147514,435.1648254394531,92.27106475830078,429.9267272949219,148.27838134765625,1044.798583984375
2024-02-20 21:54:02.147615,16.923076629638672,1432.820556640625,515.3479614257812,1542.0146484375,0.0
2024-02-20 21:54:02.147689,1443.6995849609375,1504.13916015625,529.4505615234375,1625.82421875,107.9853515625
2024-02-20 21:54:02.147769,81.79486846923828,153.11355590820312,443.6263732910156,236.5201416015625,1382.4542236328125
2024-02-20 21:54:02.147836,15.714285850524902,0.0,450.0732727050781,0.0,1609.3040771484375
2024-02-20 21:54:02.147903,1409.047607421875,1236.1904296875,537.5091552734375,1357.4725341796875,197.03297424316406
2024-02-20 21:54:02.147966,6.849816799163818,12.893773078918457,630.989013671875,93.88278198242188,71.72161102294922
2024-02-20 21:54:02.148031,236.92308044433594,377.1428527832031,614.8717651367188,415.4212341308594,1451.3553466796875
2024-02-20 21:54:02.148093,0.0,0.0,444.8351745605469,0.0,16.923076629638672
2024-02-20 21:54:02.148155,1363.5164794921875,788.1318969726562,480.29302978515625,1197.5091552734375,512.5274658203125
2024-02-20 21:54:02.174708,64.87179565429688,2.8205127716064453,631.3919677734375,153.5164794921875,0.0
2024-02-20 21:54:02.174813,415.018310546875,786.5201416015625,505.6776428222656,799.8168334960938,328.79119873046875
2024-02-20 21:54:02.174921,0.0,0.0,362.23443603515625,0.0,1369.96337890625
2024-02-20 21:54:02.174990,987.5823974609375,347.3260192871094,457.72894287109375,579.010986328125,757.106201171875
2024-02-20 21:54:02.175064,153.91941833496094,1540.805908203125,552.8204956054688,61.64834976196289,0.0
2024-02-20 21:54:02.175153,997.2527465820312,1276.886474609375,502.8571472167969,1461.83154296875,180.10989379882812
2024-02-20 21:54:02.175624,0.0,27.399267196655273,414.21246337890625,107.9853515625,1385.6776123046875
2024-02-20 21:54:02.179713,270.3663024902344,35.05494689941406,460.952392578125,85.01831817626953,1397.765625
2024-02-20 21:54:02.179782,1596.00732421875,1390.10986328125,708.7545776367188,1502.12451171875,315.8974304199219
2024-02-20 21:54:02.179849,1539.5970458984375,1564.17578125,671.2820434570312,1639.9267578125,0.0
2024-02-20 21:54:02.179909,153.11355590820312,201.46519470214844,390.4395751953125,238.93772888183594,820.7692260742188
2024-02-20 21:54:02.181222,0.0,0.0,428.71795654296875,0.0,1545.6409912109375
2024-02-20 21:54:02.203791,1380.03662109375,1149.157470703125,589.4871826171875,1348.205078125,561.6849975585938
2024-02-20 21:54:02.203867,9.670330047607422,37.47252655029297,579.4139404296875,105.56776428222656,0.0
2024-02-20 21:54:02.203932,230.87911987304688,474.6520080566406,425.8974304199219,454.1025695800781,520.5860595703125
2024-02-20 21:54:02.203991,0.0,0.0,425.0915832519531,0.0,1519.047607421875
2024-02-20 21:54:02.204054,1309.9267578125,691.8314819335938,507.28936767578125,1127.3992919921875,681.7582397460938
2024-02-20 21:54:02.204118,1525.091552734375,1525.4945068359375,553.6264038085938,168.42491149902344,0.0
2024-02-20 21:54:02.204181,441.20880126953125,875.970703125,476.26373291015625,1134.2490234375,390.03662109375
2024-02-20 21:54:02.204244,0.0,0.0,429.1208801269531,0.0,1530.3297119140625
2024-02-20 21:54:02.204930,840.10986328125,251.8314971923828,529.047607421875,650.3296508789062,1244.6519775390625
2024-02-20 21:54:02.204990,149.4871826171875,1518.24169921875,523.4066162109375,93.07691955566406,0.0
2024-02-20 21:54:02.205051,1247.87548828125,1396.15380859375,469.010986328125,1541.6116943359375,26.190475463867188
2024-02-20 21:54:02.205111,0.0,87.83882904052734,431.5384521484375,232.08790588378906,1332.893798828125
2024-02-20 21:54:02.248944,188.57142639160156,0.0,426.30035400390625,53.589744567871094,1259.5604248046875
2024-02-20 21:54:02.249067,1559.7435302734375,1359.084228515625,495.6044006347656,1492.857177734375,14.102563858032227
2024-02-20 21:54:02.249150,1612.5274658203125,1616.5567626953125,498.02197265625,9.670330047607422,0.4029304087162018
2024-02-20 21:54:02.249230,230.87911987304688,263.9194030761719,435.1648254394531,260.69598388671875,1287.765625
2024-02-20 21:54:02.249300,0.0,0.0,419.4505615234375,0.0,1549.6702880859375
2024-02-20 21:54:02.250288,1380.842529296875,1060.915771484375,523.003662109375,1312.7471923828125,235.3113555908203
2024-02-20 21:54:02.250359,14.102563858032227,40.69597244262695,608.8278198242188,168.8278350830078,0.0
2024-02-20 21:54:02.250426,270.3663024902344,575.7875366210938,566.923095703125,746.2271118164062,1202.7471923828125
2024-02-20 21:54:02.250490,0.0,0.0,462.5641174316406,0.0,97.1062240600586
2024-02-20 21:54:02.254720,1212.0146484375,562.087890625,470.6227111816406,1059.7069091796875,600.3662719726562
2024-02-20 21:54:02.254779,137.8022003173828,1611.7215576171875,580.2197875976562,180.91575622558594,0.0
2024-02-20 21:54:02.254838,682.1611938476562,1058.4981689453125,567.7289428710938,1278.4981689453125,741.7948608398438
2024-02-20 21:54:02.319215,0.0,0.0,402.9303894042969,17.72893714904785,1550.4761962890625
2024-02-20 21:54:02.319349,643.8828125,165.2014617919922,421.062255859375,288.9010925292969,871.1355590820312
2024-02-20 21:54:02.319449,89.04762268066406,1475.128173828125,562.4908447265625,1627.8388671875,0.0
2024-02-20 21:54:02.319545,1370.769287109375,1457.3992919921875,501.6483459472656,1596.813232421875,3.2234432697296143
2024-02-20 21:54:02.319632,40.29304122924805,123.29669952392578,396.0805969238281,236.11721801757812,1094.761962890625
2024-02-20 21:54:02.319717,84.21245574951172,0.0,424.28570556640625,0.0,1456.5933837890625
2024-02-20 21:54:02.320185,1478.3516845703125,1301.8681640625,581.025634765625,1414.2857666015625,313.8827819824219
2024-02-20 21:54:02.320267,1643.9560546875,1646.776611328125,746.6300659179688,22.96703338623047,183.73626708984375
2024-02-20 21:54:02.320346,241.35531616210938,322.74725341796875,471.8315124511719,271.1721496582031,900.1465454101562
2024-02-20 21:54:02.321978,0.0,0.0,361.025634765625,0.0,1358.2784423828125
2024-02-20 21:54:02.322057,1374.798583984375,911.4285888671875,556.4468994140625,1277.6922607421875,475.4578857421875
2024-02-20 21:54:02.322133,33.846153259277344,19.340660095214844,558.05859375,151.5018310546875,0.0
2024-02-20 21:54:02.367566,335.6410217285156,673.6996459960938,427.5091552734375,672.893798828125,349.3406677246094
2024-02-20 21:54:02.367719,0.0,0.0,391.6483459472656,0.0,1483.186767578125
2024-02-20 21:54:02.367852,1088.3150634765625,435.1648254394531,485.1282043457031,931.1721801757812,1045.201416015625
2024-02-20 21:54:02.367966,147.4725341796875,1567.80224609375,530.2564086914062,152.3076934814453,0.0
2024-02-20 21:54:02.368605,823.5897216796875,1167.2894287109375,481.5018310546875,1352.6373291015625,228.46153259277344
2024-02-20 21:54:02.368718,0.0,0.0,410.1831359863281,52.380950927734375,1450.146484375
2024-02-20 21:54:02.368822,389.6336975097656,78.57142639160156,543.1502075195312,226.04396057128906,9.267398834228516
2024-02-20 21:54:02.368927,0.0,1421.5384521484375,626.5567626953125,1601.6483154296875,288.4981689453125
2024-02-20 21:54:02.369806,1456.996337890625,1510.5860595703125,493.99267578125,1613.3333740234375,0.0
2024-02-20 21:54:02.370894,87.03296661376953,157.54579162597656,440.4029235839844,247.8022003173828,1365.93408203125
2024-02-20 21:54:02.370996,8.058608055114746,0.0,519.3773193359375,0.0,10.879120826721191
2024-02-20 21:54:02.374952,1400.18310546875,1220.4761962890625,537.912109375,1386.4835205078125,378.3516540527344
2024-02-20 21:54:02.401037,8.058608055114746,13.296703338623047,487.1428527832031,42.71062088012695,0.0
2024-02-20 21:54:02.401195,237.72894287109375,386.00732421875,442.4175720214844,332.4175720214844,798.6080322265625
2024-02-20 21:54:02.401330,0.0,0.0,402.9303894042969,0.0,1487.6190185546875
2024-02-20 21:54:02.401444,1357.87548828125,763.9560546875,464.5787658691406,1162.4542236328125,394.0659484863281
2024-02-20 21:54:02.401555,64.06593322753906,1644.3590087890625,519.3773193359375,153.91941833496094,0.0
2024-02-20 21:54:02.402102,422.6739807128906,786.923095703125,483.5164794921875,843.7362670898438,656.7765502929688
2024-02-20 21:54:02.402221,0.0,0.0,422.27105712890625,0.0,1596.00732421875
2024-02-20 21:54:02.402325,948.09521484375,331.20880126953125,441.20880126953125,512.5274658203125,738.1685180664062
2024-02-20 21:54:02.402430,146.6666717529297,1532.7471923828125,513.3333129882812,33.44322204589844,0.0
2024-02-20 21:54:02.402528,998.8644409179688,1280.10986328125,537.912109375,1503.3333740234375,432.3443298339844
2024-02-20 21:54:02.403236,0.0,28.205127716064453,422.6739807128906,143.84616088867188,1606.4835205078125
2024-02-20 21:54:02.403334,246.996337890625,29.010988235473633,405.3479919433594,52.78388214111328,1172.930419921875
2024-02-20 21:54:02.449132,1580.6959228515625,1382.05126953125,549.5970458984375,1475.93408203125,56.81318664550781
2024-02-20 21:54:02.450928,1542.820556640625,1559.3406982421875,593.5164794921875,1645.970703125,250.21978759765625
2024-02-20 21:54:02.451075,149.08424377441406,202.27105712890625,436.3736267089844,238.53480529785156,1234.981689453125
2024-02-20 21:54:02.451211,0.0,0.0,377.5457763671875,0.0,1354.2490234375
2024-02-20 21:54:02.451354,1380.4395751953125,1122.5640869140625,515.3479614257812,1354.6519775390625,236.11721801757812
2024-02-20 21:54:02.451482,6.4468865394592285,26.593406677246094,637.8388061523438,88.24176025390625,0.0
2024-02-20 21:54:02.451607,249.010986328125,473.8461608886719,490.76922607421875,442.4175720214844,850.1831665039062
2024-02-20 21:54:02.451736,0.0,0.0,367.8754577636719,0.0,1575.86083984375
2024-02-20 21:54:02.451850,1274.4688720703125,638.2417602539062,480.29302978515625,1066.959716796875,475.054931640625
2024-02-20 21:54:02.451976,101.94139099121094,1619.3773193359375,777.6557006835938,164.39559936523438,65.27472686767578
2024-02-20 21:54:02.452094,533.4798583984375,919.084228515625,653.5531005859375,995.2380981445312,769.1941528320312
2024-02-20 21:54:02.452224,0.0,0.0,365.054931640625,0.0,1450.5494384765625
2024-02-20 21:54:02.495221,757.106201171875,228.46153259277344,466.19049072265625,365.8608093261719,966.2271118164062
2024-02-20 21:54:02.498404,119.67032623291016,1499.7069091796875,550.4029541015625,1639.9267578125,0.0
2024-02-20 21:54:02.498552,1208.791259765625,1383.2601318359375,477.4725341796875,1543.6263427734375,66.88644409179688
2024-02-20 21:54:02.498709,0.0,84.21245574951172,407.76556396484375,167.61904907226562,1315.164794921875
2024-02-20 21:54:02.498848,237.3260040283203,68.0952377319336,463.3699645996094,123.29669952392578,1531.94140625
2024-02-20 21:54:02.501097,1549.6702880859375,1365.128173828125,595.1282348632812,1496.08056640625,300.989013671875
2024-02-20 21:54:02.501238,1600.842529296875,1596.4102783203125,578.6080322265625,1634.6885986328125,0.0
2024-02-20 21:54:02.501373,222.8205108642578,268.3516540527344,405.75091552734375,242.1611785888672,876.3735961914062
2024-02-20 21:54:02.501509,0.0,0.0,468.20513916015625,0.0,62.0512809753418
2024-02-20 21:54:02.501641,1384.06591796875,1008.937744140625,647.912109375,1342.5640869140625,934.3956298828125
2024-02-20 21:54:02.501774,4.029304027557373,26.593406677246094,541.5384521484375,113.62637329101562,0.0
2024-02-20 21:54:02.501905,266.3370056152344,576.996337890625,419.8534851074219,541.1355590820312,455.31134033203125
2024-02-20 21:54:02.544834,0.0,0.0,436.3736267089844,0.0,1479.157470703125
2024-02-20 21:54:02.545079,1178.974365234375,525.8241577148438,474.24908447265625,922.3076782226562,618.901123046875
2024-02-20 21:54:02.545305,140.21978759765625,1603.2601318359375,508.9010925292969,162.38095092773438,0.0
2024-02-20 21:54:02.545543,658.7911987304688,1045.201416015625,462.1611633300781,1166.08056640625,207.5091552734375
2024-02-20 21:54:02.545747,0.0,0.0,398.4981689453125,0.0,1435.6409912109375
2024-02-20 21:54:02.545935,758.7179565429688,378.75457763671875,480.29302978515625,487.94873046875,1170.5128173828125
2024-02-20 21:54:02.546214,141.42857360839844,1557.3260498046875,581.8314819335938,37.47252655029297,0.0
2024-02-20 21:54:02.546378,1340.146484375,1413.076904296875,545.1648559570312,1561.75830078125,94.28571319580078
2024-02-20 21:54:02.546545,48.35165023803711,140.62271118164062,500.8424987792969,251.025634765625,1410.2564697265625
2024-02-20 21:54:02.548850,68.0952377319336,0.0,529.4505615234375,0.0,1614.945068359375
2024-02-20 21:54:02.549004,1462.6373291015625,1288.16845703125,533.8828125,1380.4395751953125,203.07691955566406
2024-02-20 21:54:02.549173,1647.5823974609375,1644.3590087890625,542.3442993164062,37.47252655029297,0.0
2024-02-20 21:54:02.591444,240.54945373535156,323.9560546875,436.77655029296875,304.21246337890625,1280.10986328125
2024-02-20 21:54:02.591820,0.0,0.0,373.9194030761719,0.0,1485.6043701171875
2024-02-20 21:54:02.592063,1374.3956298828125,891.2820434570312,472.6373596191406,1230.952392578125,286.0805969238281
2024-02-20 21:54:02.596904,35.4578742980957,14.505494117736816,559.2673950195312,143.44322204589844,0.0
2024-02-20 21:54:02.597158,342.8937683105469,680.5494384765625,464.5787658691406,660.0,386.00732421875
2024-02-20 21:54:02.597375,0.0,0.0,410.5860900878906,0.0,1494.4688720703125
2024-02-20 21:54:02.597633,1069.7802734375,418.6446838378906,461.3553161621094,797.8021850585938,919.4871826171875
2024-02-20 21:54:02.597863,149.89010620117188,1560.146484375,620.5128173828125,122.4908447265625,0.0
2024-02-20 21:54:02.598068,853.8095092773438,1186.22705078125,698.6813354492188,1345.3846435546875,877.5823974609375
2024-02-20 21:54:02.598280,0.0,0.0,421.4652099609375,47.14285659790039,1643.5531005859375
2024-02-20 21:54:02.598488,377.5457763671875,75.34798431396484,396.4835205078125,117.25274658203125,948.4981689453125
2024-02-20 21:54:02.598695,1645.970703125,1420.7325439453125,616.4835205078125,1514.6153564453125,7.252747058868408
2024-02-20 21:54:02.621022,1471.098876953125,1520.6593017578125,542.7472534179688,1631.8681640625,0.0
2024-02-20 21:54:02.624299,98.31501770019531,164.39559936523438,370.69598388671875,236.11721801757812,1027.069580078125
2024-02-20 21:54:02.624534,3.2234432697296143,0.0,409.3772888183594,0.0,1390.10986328125
2024-02-20 21:54:02.624765,1398.5714111328125,1214.835205078125,513.7362670898438,1362.3077392578125,237.72894287109375
2024-02-20 21:54:02.625036,8.058608055114746,20.549449920654297,523.8095092773438,70.9157485961914,0.0
2024-02-20 21:54:02.625317,238.13186645507812,403.73626708984375,439.5970764160156,361.025634765625,864.6886596679688
2024-02-20 21:54:02.625576,0.0,0.0,416.6300354003906,0.0,46.739925384521484
2024-02-20 21:54:02.625840,1347.80224609375,750.2564086914062,598.3516235351562,1214.4322509765625,1338.937744140625
2024-02-20 21:54:02.626050,76.95970916748047,1645.164794921875,651.5384521484375,159.56044006347656,150.2930450439453
2024-02-20 21:54:02.626270,450.8791198730469,814.3223266601562,469.010986328125,844.945068359375,311.4652099609375
2024-02-20 21:54:02.626464,0.0,0.0,412.6007385253906,0.0,1587.142822265625
2024-02-20 21:54:02.626621,932.7838745117188,318.71795654296875,539.9267578125,639.8534545898438,1336.1171875
2024-02-20 21:54:02.688689,149.89010620117188,1531.5384521484375,557.6557006835938,86.22710418701172,57.619049072265625
2024-02-20 21:54:02.689124,1067.765625,1315.164794921875,453.29669189453125,1441.2821044921875,0.0
2024-02-20 21:54:02.689597,0.0,43.91941452026367,409.3772888183594,110.80586242675781,1340.952392578125
2024-02-20 21:54:02.689856,239.3406524658203,24.578754425048828,442.0146484375,63.260074615478516,1269.6336669921875
2024-02-20 21:54:02.690063,1584.7252197265625,1384.06591796875,511.3186950683594,1477.5457763671875,17.72893714904785
2024-02-20 21:54:02.692864,1552.087890625,1573.4432373046875,522.6007080078125,1645.164794921875,0.0
2024-02-20 21:54:02.693292,161.57508850097656,211.94139099121094,458.937744140625,237.72894287109375,1284.13916015625
2024-02-20 21:54:02.693656,0.0,0.0,481.5018310546875,0.0,1521.062255859375
2024-02-20 21:54:02.693907,1380.842529296875,1128.6080322265625,501.6483459472656,1347.80224609375,220.8058624267578
2024-02-20 21:54:02.694154,7.252747058868408,35.4578742980957,503.6629943847656,105.97069549560547,0.0
2024-02-20 21:54:02.694462,250.21978759765625,504.0659484863281,475.054931640625,490.3663024902344,832.05126953125
2024-02-20 21:54:02.694705,0.0,0.0,409.3772888183594,0.0,1601.6483154296875
2024-02-20 21:54:02.742717,1356.6666259765625,756.3003540039062,469.4139099121094,1220.4761962890625,369.8901062011719
2024-02-20 21:54:02.742930,1550.879150390625,1440.879150390625,521.3919677734375,1558.937744140625,23.77289390563965
2024-02-20 21:54:02.743113,1052.4542236328125,630.989013671875,466.996337890625,715.2014770507812,541.1355590820312
2024-02-20 21:54:02.743277,60.842491149902344,1380.4395751953125,553.6264038085938,1537.5823974609375,54.79853439331055
2024-02-20 21:54:02.743435,1309.9267578125,1464.2490234375,613.2600708007812,1623.8095703125,464.1758117675781
2024-02-20 21:54:02.743611,0.0,84.21245574951172,460.5494384765625,189.37728881835938,1549.6702880859375
2024-02-20 21:54:02.743747,147.06959533691406,0.0,434.3589782714844,9.670330047607422,1432.0146484375
2024-02-20 21:54:02.743907,1524.2857666015625,1338.5347900390625,564.5054931640625,1434.029296875,154.3223419189453
2024-02-20 21:54:02.744041,1620.18310546875,1614.5421142578125,736.959716796875,14.908425331115723,371.0989074707031
2024-02-20 21:54:02.744193,226.44688415527344,268.75457763671875,564.5054931640625,262.30767822265625,1617.3626708984375
2024-02-20 21:54:02.744320,0.0,0.0,383.99267578125,0.0,1396.5567626953125
2024-02-20 21:54:02.744451,1386.08056640625,1006.1171875,499.6336975097656,1309.120849609375,250.21978759765625
2024-02-20 21:54:02.786268,7.252747058868408,28.205127716064453,543.5531005859375,124.1025619506836,0.0
2024-02-20 21:54:02.786558,282.8571472167969,593.91943359375,435.970703125,562.4908447265625,449.6703186035156
2024-02-20 21:54:02.786823,0.0,0.0,381.1721496582031,0.0,1419.120849609375
2024-02-20 21:54:02.787060,1193.8828125,522.1978149414062,498.02197265625,969.047607421875,865.091552734375
2024-02-20 21:54:02.787294,124.9084243774414,1590.3663330078125,596.3369750976562,149.4871826171875,0.0
2024-02-20 21:54:02.787530,711.97802734375,1082.2711181640625,515.3479614257812,1249.89013671875,334.4322204589844
2024-02-20 21:54:02.787733,0.0,0.0,404.5421142578125,0.0,1432.0146484375
2024-02-20 21:54:02.793629,548.3883056640625,136.1904754638672,518.1685180664062,298.5714416503906,1578.6812744140625
2024-02-20 21:54:02.793900,58.42490768432617,1456.5933837890625,776.8497924804688,1626.22705078125,589.084228515625
2024-02-20 21:54:02.794644,1389.3040771484375,1474.3223876953125,574.981689453125,1590.769287109375,0.0
2024-02-20 21:54:02.794920,41.904762268066406,131.35531616210938,371.9047546386719,236.92308044433594,1062.930419921875
2024-02-20 21:54:02.795157,67.69230651855469,0.0,465.78753662109375,0.0,1415.4945068359375
2024-02-20 21:54:02.817380,1460.2197265625,1282.5274658203125,514.945068359375,1386.886474609375,201.86813354492188
2024-02-20 21:54:02.817663,1647.9853515625,0.8058608174324036,490.76922607421875,18.937728881835938,0.0
2024-02-20 21:54:02.817856,239.74359130859375,336.8498229980469,421.4652099609375,273.5897521972656,749.8534545898438
2024-02-20 21:54:02.818758,0.0,0.0,397.28936767578125,0.0,1440.0732421875
2024-02-20 21:54:02.818958,1371.172119140625,877.5823974609375,485.1282043457031,1228.1318359375,367.8754577636719
2024-02-20 21:54:02.819139,44.32234573364258,15.311355590820312,581.025634765625,141.8314971923828,0.0
2024-02-20 21:54:02.819313,360.6227111816406,703.5164794921875,487.94873046875,705.93408203125,583.8461303710938
2024-02-20 21:54:02.819489,0.0,0.0,475.8608093261719,0.0,1611.7215576171875
2024-02-20 21:54:02.819775,1059.7069091796875,410.989013671875,533.8828125,689.010986328125,1077.8388671875
2024-02-20 21:54:02.819962,153.91941833496094,1560.5494384765625,529.8534545898438,99.92674255371094,0.0
2024-02-20 21:54:02.820190,888.8644409179688,1198.3150634765625,500.03662109375,1365.128173828125,219.1941375732422
2024-02-20 21:54:02.821199,0.0,0.0,409.3772888183594,46.336997985839844,1461.025634765625
2024-02-20 21:54:02.886419,357.80218505859375,62.4542121887207,411.79486083984375,107.5824203491211,1065.7509765625
2024-02-20 21:54:02.886799,1641.135498046875,1410.6593017578125,506.8864440917969,1503.3333740234375,0.0
2024-02-20 21:54:02.887005,1474.7252197265625,1522.6739501953125,511.72161865234375,1639.120849609375,132.1611785888672
2024-02-20 21:54:02.887222,100.73259735107422,167.2161102294922,414.6153869628906,240.54945373535156,1433.6263427734375
2024-02-20 21:54:02.887464,0.0,0.0,409.78021240234375,0.0,1455.78759765625
2024-02-20 21:54:02.887786,1392.5274658203125,1196.3004150390625,514.5421142578125,1354.2490234375,106.37362670898438
2024-02-20 21:54:02.888010,8.058608055114746,18.53479766845703,614.8717651367188,90.65933990478516,106.37362670898438
2024-02-20 21:54:02.888960,239.74359130859375,406.959716796875,550.4029541015625,421.062255859375,1426.776611328125
2024-02-20 21:54:02.889943,0.0,0.0,398.0952453613281,0.0,1637.5091552734375
2024-02-20 21:54:02.893011,1337.3260498046875,736.959716796875,488.3516540527344,1159.230712890625,573.3699340820312
2024-02-20 21:54:02.893244,80.18315124511719,1642.7471923828125,628.5714111328125,153.5164794921875,0.0
2024-02-20 21:54:02.893469,461.75823974609375,831.6483764648438,493.5897521972656,830.4395751953125,263.5164794921875
2024-02-20 21:54:02.939358,0.0,0.0,356.5934143066406,0.0,1392.5274658203125
2024-02-20 21:54:02.939639,907.3992919921875,305.018310546875,452.0879211425781,464.5787658691406,863.076904296875
2024-02-20 21:54:02.939846,146.26373291015625,1525.4945068359375,564.908447265625,24.175825119018555,0.0
2024-02-20 21:54:02.940043,1076.22705078125,1320.0,493.99267578125,1465.054931640625,83.003662109375
2024-02-20 21:54:02.941930,0.0,47.9487190246582,384.3955993652344,96.70330047607422,1217.6556396484375
2024-02-20 21:54:02.942272,228.46153259277344,16.117216110229492,450.0732727050781,56.410255432128906,1534.3590087890625
2024-02-20 21:54:02.942667,1577.069580078125,1372.783935546875,722.05126953125,1464.6519775390625,495.6044006347656
2024-02-20 21:54:02.942942,1554.908447265625,1575.054931640625,684.1758422851562,1647.5823974609375,67.28937530517578
2024-02-20 21:54:02.943230,161.57508850097656,217.9853515625,396.0805969238281,237.72894287109375,1060.10986328125
2024-02-20 21:54:02.943515,0.0,0.0,438.3882751464844,0.0,54.79853439331055
2024-02-20 21:54:02.943734,1381.245361328125,1095.164794921875,670.4761962890625,1351.83154296875,961.3919677734375
2024-02-20 21:54:02.943992,4.835165023803711,31.0256404876709,606.00732421875,94.28571319580078,0.0
2024-02-20 21:54:02.964573,251.42857360839844,506.4835205078125,427.9120788574219,467.3992614746094,628.974365234375
2024-02-20 21:54:02.966069,0.0,0.0,413.4065856933594,0.0,1607.6922607421875
2024-02-20 21:54:02.966257,1252.3077392578125,618.4981689453125,487.5457763671875,1027.4725341796875,706.3369750976562
2024-02-20 21:54:02.966439,113.62637329101562,1618.974365234375,518.1685180664062,160.36630249023438,0.0
2024-02-20 21:54:02.966626,566.923095703125,955.3479614257812,448.8644714355469,1016.5933837890625,231.2820587158203
2024-02-20 21:54:02.966805,0.0,0.0,425.0915832519531,0.0,1431.6116943359375
2024-02-20 21:54:02.966988,721.2454223632812,209.5238037109375,486.73992919921875,318.3150329589844,1201.94140625
2024-02-20 21:54:02.967178,108.38827514648438,1488.827880859375,512.12451171875,1612.12451171875,0.0
2024-02-20 21:54:02.967363,1268.827880859375,1409.047607421875,473.040283203125,1563.77294921875,35.86080551147461
2024-02-20 21:54:02.967591,0.0,94.28571319580078,463.3699645996094,188.57142639160156,1349.4139404296875
2024-02-20 21:54:02.968593,141.8314971923828,0.0,475.4578857421875,0.0,1465.86083984375
2024-02-20 21:54:02.973518,1517.032958984375,1327.6556396484375,500.8424987792969,1410.6593017578125,130.54945373535156
2024-02-20 21:54:03.015378,1624.21240234375,1620.18310546875,501.6483459472656,6.043956279754639,0.0
2024-02-20 21:54:03.015680,228.46153259277344,277.21612548828125,450.0732727050781,237.72894287109375,1257.94873046875
2024-02-20 21:54:03.016395,0.0,0.0,435.1648254394531,0.0,53.99267578125
2024-02-20 21:54:03.017218,286.8864440917969,600.3662719726562,539.5238037109375,688.2051391601562,1236.1904296875
2024-02-20 21:54:03.017452,0.0,0.0,446.0439453125,0.0,132.56410217285156
2024-02-20 21:54:03.017651,1153.5897216796875,505.27471923828125,455.31134033203125,871.1355590820312,696.6666870117188
2024-02-20 21:54:03.017835,140.21978759765625,1588.754638671875,589.084228515625,144.65200805664062,0.0
2024-02-20 21:54:03.018008,718.4249267578125,1089.9267578125,635.018310546875,1329.2674560546875,1002.4908447265625
2024-02-20 21:54:03.018472,0.0,0.0,436.77655029296875,35.05494689941406,83.4065933227539
2024-02-20 21:54:03.018660,536.7033081054688,129.3406524658203,404.945068359375,163.1868133544922,838.09521484375
2024-02-20 21:54:03.061363,54.79853439331055,1452.967041015625,565.3113403320312,1557.7288818359375,0.0
2024-02-20 21:54:03.061622,1395.7509765625,1479.96337890625,508.0952453613281,1613.3333740234375,0.0
2024-02-20 21:54:03.061787,46.336997985839844,136.1904754638672,383.99267578125,228.86447143554688,1062.12451171875
2024-02-20 21:54:03.061948,62.4542121887207,0.0,408.1684875488281,0.0,1332.4908447265625
2024-02-20 21:54:03.062150,1455.78759765625,1270.842529296875,541.5384521484375,1380.4395751953125,141.42857360839844
2024-02-20 21:54:03.062370,1648.791259765625,3.626373529434204,589.89013671875,27.80219841003418,0.0
2024-02-20 21:54:03.062546,239.3406524658203,346.1172180175781,468.20513916015625,285.6776428222656,977.106201171875
2024-02-20 21:54:03.062713,0.0,0.0,392.05126953125,0.0,1623.003662109375
2024-02-20 21:54:03.063476,1368.3516845703125,859.047607421875,587.4725341796875,1229.3406982421875,705.5311279296875
2024-02-20 21:54:03.063651,51.978023529052734,12.893773078918457,852.6007080078125,145.05494689941406,0.0
2024-02-20 21:54:03.063837,379.1575012207031,722.4542236328125,524.2124633789062,676.923095703125,281.24542236328125
2024-02-20 21:54:03.064004,0.0,0.0,337.6556701660156,0.0,1447.7288818359375
2024-02-20 21:54:03.109667,1041.5750732421875,392.4542236328125,491.1721496582031,779.6703491210938,1052.857177734375
2024-02-20 21:54:03.115154,155.5311279296875,1555.3114013671875,521.3919677734375,118.86447143554688,0.0
2024-02-20 21:54:03.115355,907.8021850585938,1222.4908447265625,458.1318664550781,1346.996337890625,65.27472686767578
2024-02-20 21:54:03.115536,0.0,1.6117216348648071,389.6336975097656,47.9487190246582,1343.77294921875
2024-02-20 21:54:03.115735,345.71429443359375,56.81318664550781,428.71795654296875,103.15018463134766,1256.7398681640625
2024-02-20 21:54:03.116144,1635.8974609375,1408.6446533203125,548.3883056640625,1498.09521484375,0.0
2024-02-20 21:54:03.116326,1485.6043701171875,1535.970703125,555.2380981445312,1640.7325439453125,67.28937530517578
2024-02-20 21:54:03.116513,110.0,175.27471923828125,444.4322204589844,240.95237731933594,1245.4578857421875
2024-02-20 21:54:03.116736,0.0,0.0,515.3479614257812,0.0,123.29669952392578
2024-02-20 21:54:03.117972,1389.7069091796875,1190.2564697265625,702.7106323242188,1374.3956298828125,1018.6080322265625
2024-02-20 21:54:03.118172,8.461538314819336,25.787546157836914,587.4725341796875,48.35165023803711,0.0
2024-02-20 21:54:03.118355,240.14651489257812,426.30035400390625,410.989013671875,350.5494384765625,647.912109375
2024-02-20 21:54:03.163711,0.0,0.0,395.27471923828125,0.0,1523.076904296875
2024-02-20 21:54:03.164133,1330.0732421875,728.901123046875,471.8315124511719,1122.967041015625,429.1208801269531
2024-02-20 21:54:03.165147,88.24176025390625,1643.5531005859375,520.5860595703125,157.54579162597656,0.0
2024-02-20 21:54:03.165420,480.29302978515625,844.1392211914062,456.9230651855469,884.4322509765625,496.00732421875
2024-02-20 21:54:03.165682,0.0,0.0,396.4835205078125,0.0,1567.3992919921875
2024-02-20 21:54:03.165986,897.7289428710938,297.76556396484375,464.5787658691406,489.1575012207031,1113.6995849609375
2024-02-20 21:54:03.166209,145.45787048339844,1523.8828125,570.1465454101562,22.564102172851562,0.0
2024-02-20 21:54:03.166555,1092.7471923828125,1330.4761962890625,555.6410522460938,1530.3297119140625,336.8498229980469
2024-02-20 21:54:03.166783,0.0,53.18681335449219,434.3589782714844,179.3040313720703,1607.6922607421875
2024-02-20 21:54:03.167078,224.43223571777344,12.490842819213867,402.1245422363281,18.937728881835938,1126.5933837890625
2024-02-20 21:54:03.168383,1572.234375,1368.754638671875,516.1538696289062,1444.5054931640625,61.64834976196289
2024-02-20 21:54:03.168789,1569.010986328125,1580.6959228515625,582.6373901367188,1.2087912559509277,109.19413757324219
2024-02-20 21:54:03.192469,178.09524536132812,223.62637329101562,437.1794738769531,239.3406524658203,994.4322509765625
2024-02-20 21:54:03.193234,0.0,0.0,379.5604248046875,0.0,1346.996337890625
2024-02-20 21:54:03.193819,1382.05126953125,1090.3297119140625,519.3773193359375,1340.5494384765625,267.5457763671875
2024-02-20 21:54:03.196041,4.432234287261963,35.05494689941406,620.10986328125,94.28571319580078,0.0
2024-02-20 21:54:03.196610,253.84616088867188,512.930419921875,487.5457763671875,453.69964599609375,664.4322509765625
2024-02-20 21:54:03.196809,0.0,0.0,419.047607421875,0.0,1647.5823974609375
2024-02-20 21:54:03.197009,1236.996337890625,657.5823974609375,512.930419921875,1047.6190185546875,730.5128173828125
2024-02-20 21:54:03.197203,118.46154022216797,1631.8681640625,792.1611938476562,166.00732421875,0.0
2024-02-20 21:54:03.197394,581.4285888671875,957.7655639648438,802.2344360351562,1180.989013671875,1231.3553466796875
2024-02-20 21:54:03.197585,0.0,0.0,413.80950927734375,0.0,85.01831817626953
2024-02-20 21:54:03.197768,705.1282348632812,194.2124481201172,433.5531005859375,261.9047546386719,847.3626098632812
2024-02-20 21:54:03.197955,104.76190185546875,1481.97802734375,562.4908447265625,1611.7215576171875,11.684981346130371
2024-02-20 21:54:03.262509,1280.5128173828125,1415.091552734375,477.0696105957031,1557.7288818359375,12.087912559509277
2024-02-20 21:54:03.262761,0.0,98.31501770019531,388.8278503417969,170.43955993652344,1165.6776123046875
2024-02-20 21:54:03.262975,126.92308044433594,0.0,453.69964599609375,12.893773078918457,1556.923095703125
2024-02-20 21:54:03.263174,1503.7362060546875,1317.9853515625,536.3003540039062,1433.6263427734375,295.75091552734375
2024-02-20 21:54:03.263363,1628.6446533203125,1622.6007080078125,502.4542236328125,2.4175825119018555,0.0
2024-02-20 21:54:03.263568,230.07325744628906,283.26007080078125,423.8827819824219,238.93772888183594,1014.5787353515625
2024-02-20 21:54:03.264233,0.0,0.0,460.1465148925781,0.0,111.20879364013672
2024-02-20 21:54:03.264439,1380.4395751953125,960.989013671875,616.08056640625,1320.4029541015625,950.10986328125
2024-02-20 21:54:03.264630,16.117216110229492,21.355310440063477,536.7033081054688,112.0146484375,0.0
2024-02-20 21:54:03.264829,296.1538391113281,614.06591796875,413.80950927734375,556.4468994140625,403.3333435058594
2024-02-20 21:54:03.265010,0.0,0.0,439.19415283203125,0.0,1481.172119140625
2024-02-20 21:54:03.265688,1135.054931640625,483.1135559082031,477.8754577636719,821.5750732421875,690.2197875976562
2024-02-20 21:54:03.309556,141.8314971923828,1580.6959228515625,510.9157409667969,129.3406524658203,0.0
2024-02-20 21:54:03.310030,731.7216186523438,1105.6409912109375,465.3846130371094,1207.9853515625,190.1831512451172
2024-02-20 21:54:03.310277,0.0,0.0,400.5128173828125,0.0,1392.930419921875
2024-02-20 21:54:03.310500,514.945068359375,116.44688415527344,438.79119873046875,171.64834594726562,1084.6885986328125
2024-02-20 21:54:03.310724,47.5457878112793,1445.3114013671875,524.6153564453125,1532.7471923828125,0.0
2024-02-20 21:54:03.315912,1403.003662109375,1481.97802734375,536.3003540039062,1621.3919677734375,107.9853515625
2024-02-20 21:54:03.316115,52.78388214111328,137.39926147460938,501.24542236328125,228.46153259277344,1402.19775390625
373535156
2024-02-20 21:54:03.015378,1624.21240234375,1620.18310546875,501.6483459472656,6.043956279754639,0.0
2024-02-20 21:54:03.015680,228.46153259277344,277.21612548828125,450.0732727050781,237.72894287109375,1257.9487302024-02-20 21:54:03.316286,47.9487190246582,0.0,462.967041015625,0.0,1539.194091796875
2024-02-20 21:54:03.316755,1.2087912559509277,4.029304027557373,600.3662719726562,45.93406677246094,0.0
2024-02-20 21:54:03.316948,238.53480529785156,348.5347900390625,535.8974609375,331.20880126953125,1365.93408203125
2024-02-20 21:54:03.317137,0.0,0.0,408.1684875488281,0.0,1548.4615478515625
2024-02-20 21:54:03.358899,1366.3370361328125,844.945068359375,460.1465148925781,1193.8828125,298.1684875488281
2024-02-20 21:54:03.359152,58.021976470947266,10.073260307312012,546.7765502929688,139.010986328125,0.0
2024-02-20 21:54:03.359370,391.24542236328125,730.915771484375,452.4908447265625,697.4725341796875,398.9010925292969
2024-02-20 21:54:03.359573,0.0,0.0,376.3370056152344,0.0,1410.2564697265625
2024-02-20 21:54:03.359747,1035.128173828125,384.79852294921875,442.8205261230469,598.3516235351562,732.12451171875
2024-02-20 21:54:03.359904,156.3369903564453,1551.6849365234375,612.4542236328125,68.9011001586914,0.0
2024-02-20 21:54:03.360085,923.5164794921875,1232.967041015625,583.040283203125,1388.901123046875,246.996337890625
2024-02-20 21:54:03.360256,0.0,7.252747058868408,420.25640869140625,49.157508850097656,1431.6116943359375
2024-02-20 21:54:03.360652,331.6117248535156,52.380950927734375,419.8534851074219,99.12088012695312,1307.106201171875
2024-02-20 21:54:03.360829,1628.24169921875,1404.6153564453125,630.989013671875,1497.2894287109375,111.20879364013672
2024-02-20 21:54:03.361016,1501.3187255859375,1545.6409912109375,725.2747192382812,1637.106201171875,0.0
2024-02-20 21:54:03.361765,124.1025619506836,183.73626708984375,415.4212341308594,236.92308044433594,949.3040161132812
2024-02-20 21:54:03.388638,0.0,0.0,395.27471923828125,0.0,1369.5604248046875
2024-02-20 21:54:03.389162,1386.4835205078125,1178.5714111328125,550.8058471679688,1367.94873046875,291.3186950683594
2024-02-20 21:54:03.389544,8.461538314819336,28.60805892944336,523.4066162109375,54.79853439331055,0.0
2024-02-20 21:54:03.389909,241.75823974609375,440.0,420.6593322753906,340.0732727050781,555.6410522460938
2024-02-20 21:54:03.390278,0.0,0.0,404.5421142578125,0.0,1603.2601318359375
2024-02-20 21:54:03.390633,1319.194091796875,710.7692260742188,540.7326049804688,1181.794921875,978.3150024414062
2024-02-20 21:54:03.391209,92.27106475830078,1640.7325439453125,630.1831665039062,159.56044006347656,0.0
2024-02-20 21:54:03.394460,490.76922607421875,863.8828125,500.03662109375,889.2673950195312,419.4505615234375
2024-02-20 21:54:03.394695,0.0,0.0,395.27471923828125,0.0,1556.5201416015625
2024-02-20 21:54:03.394881,879.1941528320312,278.4248962402344,590.6959838867188,559.6703491210938,1615.7509765625
2024-02-20 21:54:03.395069,143.04029846191406,1516.22705078125,711.97802734375,63.663002014160156,289.30401611328125
2024-02-20 21:54:03.395395,1116.923095703125,1347.80224609375,523.8095092773438,1466.6666259765625,0.0
2024-02-20 21:54:03.440519,0.0,60.842491149902344,407.76556396484375,133.77288818359375,1417.912109375
2024-02-20 21:54:03.441007,216.37362670898438,7.655677795410156,454.1025695800781,18.131868362426758,1269.6336669921875
2024-02-20 21:54:03.441431,1566.1904296875,1365.128173828125,508.9010925292969,1429.5970458984375,49.96337127685547
2024-02-20 21:54:03.441683,1581.098876953125,1591.5750732421875,485.9340515136719,2.8205127716064453,0.0
2024-02-20 21:54:03.441889,190.989013671875,233.6996307373047,414.6153869628906,238.53480529785156,1023.8461303710938
2024-02-20 21:54:03.442076,0.0,0.0,432.3443298339844,0.0,1596.813232421875
2024-02-20 21:54:03.442285,1383.2601318359375,1078.24169921875,510.9157409667969,1336.923095703125,393.26007080078125
2024-02-20 21:54:03.442466,4.029304027557373,32.63736343383789,522.1978149414062,99.92674255371094,0.0
2024-02-20 21:54:03.443590,254.65200805664062,527.4359130859375,487.94873046875,491.5751037597656,863.4798583984375
2024-02-20 21:54:03.443819,0.0,0.0,425.4945068359375,0.0,1600.4395751953125
2024-02-20 21:54:03.444000,1230.5494384765625,595.93408203125,444.029296875,979.5238037109375,455.71429443359375
2024-02-20 21:54:03.444181,120.87911987304688,1612.930419921875,516.1538696289062,153.91941833496094,0.0
2024-02-20 21:54:03.488608,589.89013671875,939.6337280273438,475.8608093261719,1016.1904907226562,567.3259887695312
2024-02-20 21:54:03.488784,0.0,0.0,419.047607421875,0.0,1536.776611328125
2024-02-20 21:54:03.488988,699.4871826171875,203.4798583984375,436.77655029296875,279.6336975097656,863.4798583984375
2024-02-20 21:54:03.489490,99.12088012695312,1475.93408203125,528.2417602539062,1583.5164794921875,0.0
2024-02-20 21:54:03.492703,1224.5054931640625,1346.1904296875,578.2051391601562,1496.08056640625,505.6776428222656
2024-02-20 21:54:03.492887,0.0,76.55677795410156,451.6849670410156,163.99267578125,1512.6007080078125
2024-02-20 21:54:03.493052,130.54945373535156,0.0,429.9267272949219,1.2087912559509277,1447.3260498046875
2024-02-20 21:54:03.493218,1492.4542236328125,1309.9267578125,543.5531005859375,1394.13916015625,152.7106170654297
2024-02-20 21:54:03.493387,1636.3004150390625,1629.853515625,709.5604248046875,22.564102172851562,316.30035400390625
2024-02-20 21:54:03.495052,235.3113555908203,290.9157409667969,568.5347900390625,273.5897521972656,1584.3223876953125
2024-02-20 21:54:03.495181,0.0,0.0,385.6044006347656,0.0,1451.75830078125
2024-02-20 21:54:03.495313,1378.827880859375,952.930419921875,495.20147705078125,1264.798583984375,288.4981689453125
2024-02-20 21:54:03.538383,21.355310440063477,21.758241653442383,537.5091552734375,128.93772888183594,0.0
2024-02-20 21:54:03.538636,306.22711181640625,631.7948608398438,430.3296813964844,586.6666870117188,400.5128173828125
2024-02-20 21:54:03.538856,0.0,0.0,377.94873046875,0.0,1435.238037109375
2024-02-20 21:54:03.539043,1126.996337890625,464.981689453125,496.8132019042969,851.3919677734375,857.032958984375
2024-02-20 21:54:03.539220,143.04029846191406,1573.84619140625,590.6959838867188,136.59339904785156,0.0
2024-02-20 21:54:03.539392,746.6300659179688,1114.908447265625,509.30401611328125,1273.6629638671875,352.1611633300781
2024-02-20 21:54:03.540536,0.0,0.0,390.03662109375,0.0,1432.4176025390625
2024-02-20 21:54:03.540726,486.3370056152344,107.17948913574219,506.8864440917969,229.6703338623047,1576.6666259765625
2024-02-20 21:54:03.544182,35.4578742980957,1438.05859375,785.7142944335938,1590.3663330078125,660.4029541015625
2024-02-20 21:54:03.546564,1418.7178955078125,1490.842529296875,586.2637329101562,1604.4688720703125,0.0
2024-02-20 21:54:03.546757,64.06593322753906,143.04029846191406,358.20513916015625,235.7142791748047,1003.6996459960938
2024-02-20 21:54:03.546949,35.4578742980957,0.0,458.5347900390625,0.0,1436.0439453125
2024-02-20 21:54:03.568065,1427.9853515625,1252.3077392578125,514.5421142578125,1378.827880859375,226.84982299804688
2024-02-20 21:54:03.568347,3.626373529434204,8.864468574523926,485.9340515136719,22.96703338623047,0.0
2024-02-20 21:54:03.568582,238.13186645507812,361.4285583496094,414.6153869628906,285.6776428222656,696.6666870117188
2024-02-20 21:54:03.568805,0.0,0.0,391.6483459472656,0.0,1450.146484375
2024-02-20 21:54:03.569013,1365.128173828125,821.97802734375,485.5311279296875,1187.032958984375,396.8864440917969
2024-02-20 21:54:03.569226,60.842491149902344,5.238095283508301,579.8168334960938,126.11721801757812,0.0
2024-02-20 21:54:03.569442,398.0952453613281,745.4212646484375,496.00732421875,777.6557006835938,606.4102783203125
2024-02-20 21:54:03.569662,0.0,0.0,480.69598388671875,0.0,1617.765625
2024-02-20 21:54:03.570161,1028.2784423828125,367.4725341796875,538.3150024414062,611.6483764648438,1102.4176025390625
2024-02-20 21:54:03.570376,157.94871520996094,1546.849853515625,529.8534545898438,82.6007308959961,0.0
2024-02-20 21:54:03.570574,952.5274658203125,1256.3370361328125,497.21612548828125,1403.003662109375,145.86080932617188
2024-02-20 21:54:03.575223,0.0,16.5201473236084,434.3589782714844,64.87179565429688,1435.238037109375
�� k �  ��2����% � * ����P � ����� � ������� � ��q � � ��S � #N ������ ) � 	N�  �� �� ��+ � ����� 6� �2024-02-20 21:54:03.641259,321.94140625,46.739925384521484,425.4945068359375,90.25640869140625,1084.6885986328125
2024-02-20 21:54:03.641502,1624.21240234375,1401.794921875,506.4835205078125,1492.857177734375,0.0
2024-02-20 21:54:03.641692,1512.19775390625,1550.0732421875,510.9157409667969,1641.5384521484375,37.06959533691406
2024-02-20 21:54:03.641843,134.57875061035156,186.15383911132812,405.3479919433594,238.13186645507812,1104.029296875
2024-02-20 21:54:03.641987,0.0,0.0,409.78021240234375,0.0,1588.3516845703125
2024-02-20 21:54:03.643738,1387.2894287109375,1191.062255859375,526.2271118164062,1346.1904296875,269.5604248046875
2024-02-20 21:54:03.643897,8.461538314819336,36.66666793823242,649.5238037109375,110.4029312133789,31.0256404876709
2024-02-20 21:54:03.644035,241.75823974609375,437.5824279785156,603.1868286132812,479.8901062011719,1459.4139404296875
2024-02-20 21:54:03.644163,0.0,0.0,406.5567626953125,0.0,1583.5164794921875
2024-02-20 21:54:03.644288,1316.776611328125,753.4798583984375,471.025634765625,1111.2821044921875,390.4395751953125
2024-02-20 21:54:03.644428,95.8974380493164,7.252747058868408,657.5823974609375,161.1721649169922,0.0
2024-02-20 21:54:03.644554,500.03662109375,873.5531005859375,503.6629943847656,916.6666870117188,230.4761962890625
2024-02-20 21:54:03.669861,0.0,0.0,349.74359130859375,0.0,1347.3992919921875
2024-02-20 21:54:03.670064,871.5384521484375,270.76922607421875,459.74359130859375,405.3479919433594,834.06591796875
2024-02-20 21:54:03.671332,141.8314971923828,1514.21240234375,590.6959838867188,6.4468865394592285,0.0
2024-02-20 21:54:03.671444,1152.3809814453125,1356.6666259765625,504.4688720703125,1496.886474609375,73.33333587646484
2024-02-20 21:54:03.671550,0.0,67.69230651855469,377.5457763671875,120.47618865966797,1175.7509765625
2024-02-20 21:54:03.671651,196.63003540039062,0.4029304087162018,449.6703186035156,41.098899841308594,1520.2564697265625
2024-02-20 21:54:03.671752,1554.908447265625,1356.2637939453125,686.996337890625,1454.5787353515625,477.0696105957031
2024-02-20 21:54:03.671846,1589.96337890625,1595.6043701171875,668.4615478515625,1650.0,21.355310440063477
2024-02-20 21:54:03.671937,198.24176025390625,241.35531616210938,405.3479919433594,236.92308044433594,952.12451171875
2024-02-20 21:54:03.672466,0.0,0.0,421.062255859375,0.0,32.234432220458984
2024-02-20 21:54:03.672567,1383.2601318359375,1050.4395751953125,655.970703125,1352.234375,1021.4285888671875
2024-02-20 21:54:03.672663,3.626373529434204,28.60805892944336,586.6666870117188,91.46520233154297,0.0
2024-02-20 21:54:03.718726,255.86080932617188,540.7326049804688,422.27105712890625,481.9047546386719,509.70697021484375
2024-02-20 21:54:03.724547,0.0,0.0,431.94140625,0.0,1614.945068359375
2024-02-20 21:54:03.724684,1222.087890625,575.3846435546875,481.0989074707031,954.5421142578125,754.2857055664062
2024-02-20 21:54:03.724794,122.8937759399414,1608.09521484375,511.72161865234375,150.2930450439453,0.0
2024-02-20 21:54:03.724881,598.3516235351562,1006.923095703125,458.5347900390625,1060.10986328125,182.93040466308594
2024-02-20 21:54:03.725793,0.0,0.0,424.28570556640625,0.0,1433.223388671875
2024-02-20 21:54:03.725871,674.908447265625,175.6776580810547,473.040283203125,263.5164794921875,1271.245361328125
2024-02-20 21:54:03.725947,94.28571319580078,1474.3223876953125,518.5714111328125,1586.7398681640625,10.879120826721191
2024-02-20 21:54:03.726045,1323.223388671875,1432.4176025390625,478.6813049316406,1575.054931640625,9.670330047607422
2024-02-20 21:54:03.726126,12.087912559509277,107.9853515625,456.9230651855469,192.1977996826172,1327.6556396484375
2024-02-20 21:54:03.727142,106.77655792236328,0.0,448.4615478515625,0.0,1340.5494384765625
2024-02-20 21:54:03.727233,1490.4395751953125,1309.5238037109375,483.1135559082031,1395.3480224609375,65.67765808105469
2024-02-20 21:54:03.772005,1638.7178955078125,1635.4945068359375,504.0659484863281,5.641025543212891,0.0
2024-02-20 21:54:03.772161,234.10256958007812,297.76556396484375,434.3589782714844,243.36996459960938,1173.3333740234375
2024-02-20 21:54:03.772301,0.0,0.0,399.30401611328125,0.0,1585.128173828125
2024-02-20 21:54:03.772394,1376.00732421875,938.8278198242188,502.4542236328125,1247.87548828125,267.94873046875
2024-02-20 21:54:03.772480,1594.3956298828125,1616.5567626953125,599.5604248046875,128.13186645507812,0.0
2024-02-20 21:54:03.772560,285.27471923828125,620.10986328125,563.2966918945312,741.7948608398438,1215.238037109375
2024-02-20 21:54:03.772692,0.0,0.0,433.1501770019531,0.0,120.87911987304688
2024-02-20 21:54:03.773677,1115.3114013671875,456.9230651855469,465.3846130371094,796.1904907226562,727.2893676757812
2024-02-20 21:54:03.773829,151.09890747070312,1575.4578857421875,592.7106323242188,130.95237731933594,0.0
2024-02-20 21:54:03.773962,789.7435913085938,1137.069580078125,630.989013671875,1369.5604248046875,963.003662109375
2024-02-20 21:54:03.774043,0.0,0.0,442.0146484375,58.021976470947266,87.43589782714844
2024-02-20 21:54:03.776698,495.6044006347656,105.56776428222656,405.3479919433594,136.996337890625,870.7326049804688
2024-02-20 21:54:03.818099,38.68132019042969,1440.4761962890625,559.6703491210938,1541.208740234375,6.043956279754639
2024-02-20 21:54:03.818246,1441.6849365234375,1503.3333740234375,521.3919677734375,1622.19775390625,0.0
2024-02-20 21:54:03.818345,82.19779968261719,147.06959533691406,395.6776428222656,229.26739501953125,1027.87548828125
2024-02-20 21:54:03.823435,37.47252655029297,0.0,401.3186950683594,0.0,1334.908447265625
2024-02-20 21:54:03.823534,1431.6116943359375,1249.084228515625,533.8828125,1371.97802734375,160.36630249023438
2024-02-20 21:54:03.823619,1571.025634765625,1584.3223876953125,578.2051391601562,1606.886474609375,0.0
2024-02-20 21:54:03.823704,209.5238037109375,346.1172180175781,463.77288818359375,280.8424987792969,935.6043701171875
2024-02-20 21:54:03.824841,0.0,0.0,402.9303894042969,0.0,1591.172119140625
2024-02-20 21:54:03.824945,1354.6519775390625,807.87548828125,572.967041015625,1193.8828125,699.4871826171875
2024-02-20 21:54:03.825053,72.93040466308594,12.087912559509277,823.1868286132812,164.39559936523438,0.0
2024-02-20 21:54:03.825138,418.6446838378906,777.2527465820312,558.05859375,790.952392578125,445.23809814453125
2024-02-20 21:54:03.825249,0.0,0.0,359.4139099121094,0.0,1553.6995849609375
2024-02-20 21:54:03.851405,1020.2197875976562,360.21978759765625,505.27471923828125,776.8497924804688,1159.230712890625
2024-02-20 21:54:03.851552,160.76922607421875,1547.6556396484375,539.5238037109375,125.71428680419922,0.0
2024-02-20 21:54:03.851648,1002.4908447265625,1276.08056640625,452.4908447265625,1395.7509765625,17.72893714904785
2024-02-20 21:54:03.853772,0.0,26.593406677246094,394.8717956542969,88.24176025390625,1309.9267578125
2024-02-20 21:54:03.853866,302.6007385253906,41.098899841308594,442.0146484375,84.61538696289062,1256.7398681640625
2024-02-20 21:54:03.853945,1616.959716796875,1398.974365234375,558.05859375,1494.871826171875,2.0146520137786865
2024-02-20 21:54:03.854025,1531.135498046875,1556.923095703125,568.937744140625,1641.135498046875,44.32234573364258
2024-02-20 21:54:03.854106,152.3076934814453,195.018310546875,434.76190185546875,240.14651489257812,1185.82421875
2024-02-20 21:54:03.854178,0.0,0.0,512.12451171875,0.0,147.87545776367188
2024-02-20 21:54:03.854248,1384.4688720703125,1160.4395751953125,710.7692260742188,1362.3077392578125,1050.842529296875
2024-02-20 21:54:03.854318,8.461538314819336,33.0402946472168,568.937744140625,71.72161102294922,0.0
2024-02-20 21:54:03.854386,242.56410217285156,461.75823974609375,404.945068359375,400.5128173828125,621.7216186523438
2024-02-20 21:54:03.897840,0.0,0.0,400.9157409667969,0.0,1506.959716796875
2024-02-20 21:54:03.897933,1308.7178955078125,688.2051391601562,466.996337890625,1096.776611328125,446.0439453125
2024-02-20 21:54:03.898015,99.12088012695312,1637.5091552734375,521.7948608398438,168.8278350830078,0.0
2024-02-20 21:54:03.898091,511.72161865234375,895.3113403320312,474.6520080566406,964.6153564453125,454.9084167480469
2024-02-20 21:54:03.898165,0.0,0.0,393.26007080078125,0.0,1550.879150390625
2024-02-20 21:54:03.899399,846.1538696289062,258.6813049316406,465.3846130371094,529.047607421875,1145.128173828125
2024-02-20 21:54:03.899664,0.0,71.31867980957031,450.4761962890625,215.1648406982422,1578.2784423828125
2024-02-20 21:54:03.899739,181.72161865234375,0.0,404.945068359375,0.0,1188.24169921875
2024-02-20 21:54:03.899806,1542.0146484375,1354.2490234375,511.72161865234375,1422.7471923828125,53.589744567871094
2024-02-20 21:54:03.899876,1597.6190185546875,1598.02197265625,577.8021850585938,4.029304027557373,0.0
2024-02-20 21:54:03.943881,203.07691955566406,246.1904754638672,454.9084167480469,242.1611785888672,1149.157470703125
2024-02-20 21:54:03.943974,0.0,0.0,381.97802734375,0.0,1450.5494384765625
2024-02-20 21:54:03.944058,1384.06591796875,1038.754638671875,499.23077392578125,1319.5970458984375,251.8314971923828
2024-02-20 21:54:03.944140,2.8205127716064453,26.593406677246094,630.989013671875,99.92674255371094,0.0
2024-02-20 21:54:03.944219,258.27838134765625,548.7911987304688,471.4285583496094,491.5751037597656,535.8974609375
2024-02-20 21:54:03.944298,0.0,0.0,386.4102478027344,0.0,1543.6263427734375
2024-02-20 21:54:03.944374,1209.5970458984375,546.7765502929688,497.6190490722656,954.945068359375,803.4432373046875
2024-02-20 21:54:03.944451,122.0879135131836,1594.3956298828125,752.6740112304688,150.6959686279297,1.6117216348648071
2024-02-20 21:54:03.944529,612.4542236328125,1012.967041015625,664.8351440429688,1062.5274658203125,640.2564086914062
2024-02-20 21:54:03.944605,0.0,0.0,369.4871826171875,0.0,1463.040283203125
2024-02-20 21:54:03.944680,612.05126953125,159.56044006347656,450.0732727050781,223.22344970703125,1000.4761962890625
2024-02-20 21:54:03.944760,74.94505310058594,1463.84619140625,552.8204956054688,1561.75830078125,4.029304027557373
2024-02-20 21:54:03.986556,1329.6702880859375,1433.223388671875,476.6666564941406,1575.054931640625,0.0
2024-02-20 21:54:03.988488,11.684981346130371,109.5970687866211,379.5604248046875,179.3040313720703,1108.4615478515625
2024-02-20 21:54:03.988602,85.01831817626953,0.0,440.0,0.0,1514.21240234375
2024-02-20 21:54:03.988705,1466.6666259765625,1290.989013671875,535.4945068359375,1398.5714111328125,264.72528076171875
2024-02-20 21:54:03.988804,1643.150146484375,1631.8681640625,511.3186950683594,6.043956279754639,0.0
2024-02-20 21:54:03.988951,236.11721801757812,304.21246337890625,422.6739807128906,244.57875061035156,979.5238037109375
2024-02-20 21:54:03.989070,0.0,0.0,441.20880126953125,0.0,87.83882904052734
2024-02-20 21:54:03.991391,1378.4249267578125,900.1465454101562,663.2234497070312,1290.18310546875,1294.6153564453125
2024-02-20 21:54:03.991489,23.77289390563965,9.670330047607422,606.8131713867188,105.16483306884766,64.06593322753906
2024-02-20 21:54:03.991585,317.5091552734375,645.8974609375,426.70330810546875,572.967041015625,306.22711181640625
2024-02-20 21:54:03.991679,0.0,0.0,435.1648254394531,0.0,1482.783935546875
2024-02-20 21:54:03.991773,1097.5823974609375,438.79119873046875,470.6227111816406,642.6740112304688,678.5347900390625
2024-02-20 21:54:04.058104,142.63735961914062,1562.967041015625,529.047607421875,81.79486846923828,0.0
2024-02-20 21:54:04.058292,774.8351440429688,1146.7398681640625,476.6666564941406,1221.6849365234375,174.4688720703125
2024-02-20 21:54:04.061021,0.0,0.0,396.4835205078125,0.0,1382.857177734375
2024-02-20 21:54:04.061194,407.76556396484375,85.4212417602539,430.73260498046875,126.52014923095703,1139.084228515625
2024-02-20 21:54:04.061370,4.432234287261963,1423.9560546875,550.0,1485.6043701171875,0.0
2024-02-20 21:54:04.061517,1438.05859375,1499.3040771484375,559.6703491210938,1630.2564697265625,83.003662109375
2024-02-20 21:54:04.061667,72.52747344970703,151.09890747070312,494.79852294921875,224.029296875,1382.857177734375
2024-02-20 21:54:04.061796,12.087912559509277,0.0,481.9047546386719,0.0,1579.89013671875
2024-02-20 21:54:04.061925,1399.7802734375,1222.4908447265625,527.4359130859375,1378.02197265625,208.7179412841797
2024-02-20 21:54:04.062048,8.058608055114746,5.641025543212891,577.8021850585938,24.578754425048828,0.0
2024-02-20 21:54:04.062166,238.53480529785156,371.9047546386719,536.7033081054688,324.76190185546875,1365.128173828125
2024-02-20 21:54:04.062619,0.0,0.0,413.80950927734375,0.0,1560.146484375
2024-02-20 21:54:04.105787,1359.89013671875,763.9560546875,456.1172180175781,1105.6409912109375,316.70330810546875
2024-02-20 21:54:04.106010,55.20146560668945,1638.3150634765625,558.8644409179688,117.65567779541016,0.0
2024-02-20 21:54:04.106220,407.76556396484375,762.3442993164062,458.5347900390625,651.1355590820312,345.71429443359375
2024-02-20 21:54:04.106776,0.0,0.0,373.5164794921875,0.0,1405.018310546875
2024-02-20 21:54:04.106952,944.06591796875,327.1794738769531,441.20880126953125,377.1428527832031,779.6703491210938
2024-02-20 21:54:04.108194,141.42857360839844,1526.3004150390625,600.7692260742188,1632.2711181640625,0.0
2024-02-20 21:54:04.108412,938.02197265625,1254.3223876953125,572.1611938476562,1313.5531005859375,211.94139099121094
2024-02-20 21:54:04.108614,0.0,15.311355590820312,391.24542236328125,0.0,1381.245361328125
2024-02-20 21:54:04.108817,251.8314971923828,30.622711181640625,416.6300354003906,54.79853439331055,1338.1318359375
2024-02-20 21:54:04.115088,1579.4871826171875,1378.4249267578125,626.5567626953125,1413.076904296875,154.72528076171875
2024-02-20 21:54:04.115259,1520.2564697265625,1548.4615478515625,683.3699340820312,1643.9560546875,0.0
2024-02-20 21:54:04.115431,124.1025619506836,193.40660095214844,404.945068359375,229.6703338623047,926.7399291992188
2024-02-20 21:54:04.139392,0.0,0.0,381.97802734375,0.0,1418.3150634765625
2024-02-20 21:54:04.139634,1379.230712890625,1115.3114013671875,530.6593627929688,1353.040283203125,366.26373291015625
2024-02-20 21:54:04.139859,6.4468865394592285,20.146520614624023,515.3479614257812,25.384614944458008,0.0
2024-02-20 21:54:04.140068,249.8168487548828,459.74359130859375,419.4505615234375,313.0769348144531,531.062255859375
2024-02-20 21:54:04.140278,0.0,0.0,394.8717956542969,0.0,1602.05126953125
2024-02-20 21:54:04.140502,1278.09521484375,645.4945068359375,520.1831665039062,1097.9853515625,1031.098876953125
2024-02-20 21:54:04.140711,93.47985076904297,1618.5714111328125,601.1721801757812,147.06959533691406,0.0
2024-02-20 21:54:04.142447,508.4981689453125,896.1171875,494.79852294921875,839.3040161132812,438.3882751464844
2024-02-20 21:54:04.142642,0.0,0.0,383.1867980957031,0.0,1552.4908447265625
2024-02-20 21:54:04.142845,768.3883056640625,230.07325744628906,564.1025390625,375.1282043457031,1621.3919677734375
2024-02-20 21:54:04.143024,116.44688415527344,1493.6629638671875,682.1611938476562,1635.091552734375,292.9303894042969
2024-02-20 21:54:04.143242,1183.8095703125,1373.186767578125,500.8424987792969,1488.02197265625,17.72893714904785
2024-02-20 21:54:04.185720,0.0,71.72161102294922,425.0915832519531,117.25274658203125,1448.1318359375
2024-02-20 21:54:04.186210,166.8131866455078,0.0,439.5970764160156,0.0,1270.842529296875
2024-02-20 21:54:04.187897,1526.7032470703125,1344.17578125,492.3809509277344,1396.959716796875,59.63370132446289
2024-02-20 21:54:04.188210,1610.10986328125,1603.6629638671875,496.00732421875,7.252747058868408,0.0
2024-02-20 21:54:04.188470,213.15017700195312,252.63735961914062,435.970703125,240.95237731933594,1025.054931640625
2024-02-20 21:54:04.188716,0.0,0.0,428.3150329589844,0.0,1592.3809814453125
2024-02-20 21:54:04.189006,1383.6629638671875,1027.87548828125,505.27471923828125,1312.3443603515625,403.3333435058594
2024-02-20 21:54:04.189405,4.029304027557373,28.60805892944336,527.032958984375,109.5970687866211,0.0
2024-02-20 21:54:04.189692,258.6813049316406,562.4908447265625,492.3809509277344,524.2124633789062,843.7362670898438
2024-02-20 21:54:04.189996,0.0,0.0,439.5970764160156,0.0,1617.3626708984375
2024-02-20 21:54:04.190300,1205.970703125,549.5970458984375,446.4468994140625,911.8314819335938,500.03662109375
5,1620.18310546875,501.6483459472656,6.043956279754639,0.0
2024-02-20 21:54:03.015680,228.46153259277344,277.21612548828125,450.0732727050781,237.72894287109375,1257.948730 6875
      (�'                 ���  2024-02-20 21:54:04.192814,131.75823974609375,1601.245361328125,534.2857055664062,147.4725341796875,0.0
2024-02-20 21:54:04.235529,657.1795043945312,1042.783935546875,511.3186950683594,1152.783935546875,434.76190185546875
2024-02-20 21:54:04.235767,0.0,0.0,403.3333435058594,0.0,1494.4688720703125
2024-02-20 21:54:04.235955,620.5128173828125,162.38095092773438,447.6556701660156,227.65567016601562,1212.820556640625
2024-02-20 21:54:04.236129,78.97435760498047,1469.89013671875,549.1941528320312,1573.84619140625,69.30403137207031
2024-02-20 21:54:04.236769,1371.172119140625,1450.5494384765625,602.7838745117188,1593.186767578125,406.5567626953125
2024-02-20 21:54:04.236939,37.47252655029297,119.26740264892578,466.19049072265625,206.7032928466797,1500.5128173828125
2024-02-20 21:54:04.237103,78.97435760498047,0.0,424.28570556640625,0.0,1471.5018310546875
2024-02-20 21:54:04.237259,1471.098876953125,1298.24169921875,541.5384521484375,1393.3333740234375,179.3040313720703
2024-02-20 21:54:04.237418,1645.164794921875,1642.7471923828125,730.5128173828125,24.981685638427734,311.4652099609375
2024-02-20 21:54:04.237583,240.54945373535156,315.8974304199219,588.6813354492188,285.27471923828125,1546.849853515625
2024-02-20 21:54:04.238763,0.0,0.0,390.8424987792969,0.0,1587.142822265625
2024-02-20 21:54:04.238948,1374.3956298828125,908.2051391601562,523.003662109375,1242.6373291015625,452.8937683105469
2024-02-20 21:54:04.283698,35.86080551147461,19.340660095214844,572.5640869140625,126.92308044433594,0.0
2024-02-20 21:54:04.283994,337.25274658203125,676.5201416015625,433.5531005859375,624.1392211914062,356.5934143066406
2024-02-20 21:54:04.284165,0.0,0.0,375.9340515136719,0.0,1414.6885986328125
2024-02-20 21:54:04.284319,1091.94140625,432.74725341796875,471.8315124511719,695.8607788085938,841.3186645507812
2024-02-20 21:54:04.284480,150.6959686279297,1566.5933837890625,533.076904296875,99.52381134033203,0.0
2024-02-20 21:54:04.284634,840.915771484375,1174.945068359375,483.1135559082031,1304.2857666015625,274.3955993652344
2024-02-20 21:54:04.284784,0.0,0.0,404.945068359375,0.0,1396.5567626953125
2024-02-20 21:54:04.284932,407.3626403808594,79.37728881835938,504.8717956542969,187.36264038085938,1636.7032470703125
2024-02-20 21:54:04.285106,6.4468865394592285,1423.150146484375,767.5823974609375,1562.967041015625,643.4798583984375
2024-02-20 21:54:04.285398,1465.4578857421875,1515.82421875,591.5018310546875,1613.3333740234375,0.0
2024-02-20 21:54:04.285876,97.1062240600586,159.56044006347656,371.5018310546875,232.89376831054688,950.915771484375
2024-02-20 21:54:04.286137,9.267398834228516,0.0,461.3553161621094,0.0,1436.0439453125
2024-02-20 21:54:04.329496,1406.6300048828125,1228.1318359375,510.1098937988281,1377.216064453125,244.57875061035156
2024-02-20 21:54:04.335283,7.655677795410156,17.72893714904785,495.20147705078125,26.996337890625,0.0
2024-02-20 21:54:04.335473,236.5201416015625,390.8424987792969,433.5531005859375,309.047607421875,714.7985229492188
2024-02-20 21:54:04.336816,0.0,0.0,399.70697021484375,0.0,1469.89013671875
2024-02-20 21:54:04.337045,1361.098876953125,774.8351440429688,476.6666564941406,1146.3370361328125,422.27105712890625
2024-02-20 21:54:04.337261,70.5128173828125,1648.791259765625,566.5201416015625,141.42857360839844,0.0
2024-02-20 21:54:04.338478,433.5531005859375,789.7435913085938,494.3955993652344,776.4468994140625,537.106201171875
2024-02-20 21:54:04.338641,0.0,0.0,487.5457763671875,0.0,1584.3223876953125
2024-02-20 21:54:04.338808,961.3919677734375,329.5970764160156,534.6886596679688,453.29669189453125,1130.6226806640625
2024-02-20 21:54:04.338963,150.2930450439453,1533.5531005859375,522.1978149414062,27.399267196655273,0.0
2024-02-20 21:54:04.339121,1011.7582397460938,1287.3626708984375,493.99267578125,1388.4981689453125,110.0
2024-02-20 21:54:04.339275,0.0,31.428571701049805,435.970703125,45.53113555908203,1432.820556640625